,F7,Fp1,Fp2,F8,F3,Fz,F4,C3,Cz,P8,P7,Pz,P4,T3,P3,O1,O2,C4,T4,A2,IMPEDANCE,BATTERY,FRAME
0,121810944.0,4275073024.0,4105920512.0,260169728.0,325001216.0,206368768.0,208244736.0,174712832.0,369117184.0,15288320.0,92637184.0,73990144.0,192493568.0,109484032.0,156987392.0,39069696.0,41353216.0,169494528.0,204752896.0,4268969984.0,17.0,106.0,0.0
1,119269376.0,4269578240.0,4100573184.0,256997376.0,321026048.0,205336576.0,202592256.0,170280960.0,379244544.0,11130880.0,90998784.0,94660608.0,198313984.0,107829248.0,155121664.0,40210432.0,39153664.0,206759936.0,198785024.0,4264511488.0,17.0,106.0,1.0
2,128933888.0,4281718784.0,4111790080.0,263763968.0,329308160.0,212992000.0,214480896.0,180121600.0,382754816.0,21571584.0,99606528.0,93175808.0,203993088.0,116410368.0,163121152.0,47374336.0,47034368.0,188149760.0,210755584.0,4276103168.0,17.0,106.0,2.0
3,131467264.0,4287188992.0,4117069824.0,266870784.0,333207552.0,213999616.0,220131328.0,184506368.0,372598784.0,25694208.0,101230592.0,72503296.0,198189056.0,118034432.0,164956160.0,46200832.0,49207296.0,150898688.0,216682496.0,4280530944.0,17.0,106.0,3.0
4,121772032.0,4274991104.0,4105840640.0,260055040.0,324851712.0,206313472.0,208228352.0,174622720.0,369088512.0,15181824.0,92592128.0,73977856.0,192514048.0,109410304.0,156911616.0,39030784.0,41283584.0,169574400.0,204658688.0,4268883968.0,17.0,106.0,4.0
5,119244800.0,4269492224.0,4100634624.0,256894976.0,320901120.0,205301760.0,202598400.0,170227712.0,379217920.0,11028480.0,90988544.0,94676992.0,198346752.0,107776000.0,155072512.0,40269824.0,39100416.0,206837760.0,198707200.0,4264445952.0,17.0,106.0,5.0
6,128964608.0,4281683968.0,4111874048.0,263712768.0,329252864.0,212992000.0,214548480.0,180119552.0,382748672.0,21508096.0,99651584.0,93200384.0,204054528.0,116400128.0,163121152.0,47429632.0,46997504.0,188217344.0,210733056.0,4276097024.0,17.0,106.0,6.0
7,131493888.0,4287195136.0,4117174272.0,266852352.0,333172736.0,213991424.0,220219392.0,184504320.0,372594688.0,25649152.0,101251072.0,72480768.0,198232064.0,118028288.0,164966400.0,46125056.0,49164288.0,150951936.0,216682496.0,4280530944.0,17.0,106.0,7.0
8,121794560.0,4275032064.0,4105916416.0,260057088.0,324825088.0,206319616.0,208338944.0,174649344.0,369082368.0,15190016.0,92606464.0,73918464.0,192565248.0,109430784.0,156966912.0,38971392.0,41250816.0,169580544.0,204683264.0,4268918784.0,17.0,106.0,8.0
9,119269376.0,4269576192.0,4100610048.0,256937984.0,320901120.0,205328384.0,202741760.0,170266624.0,379222016.0,11071488.0,90998784.0,94547968.0,198408192.0,107806720.0,155140096.0,40167424.0,39073792.0,206757888.0,198772736.0,4264511488.0,17.0,106.0,9.0
10,128958464.0,4281749504.0,4111859712.0,263759872.0,329238528.0,213004288.0,214663168.0,180140032.0,382740480.0,21569536.0,99641344.0,93069312.0,204115968.0,116424704.0,163168256.0,47382528.0,47001600.0,188172288.0,210782208.0,4276140032.0,17.0,106.0,10.0
11,131465216.0,4287195136.0,4117088256.0,266883072.0,333125632.0,213970944.0,220301312.0,184520704.0,372590592.0,25694208.0,101242880.0,72427520.0,198295552.0,118030336.0,164995072.0,46223360.0,49174528.0,151013376.0,216692736.0,4280539136.0,17.0,106.0,11.0
12,121745408.0,4274989056.0,4105779200.0,260077568.0,324755456.0,206268416.0,208396288.0,174630912.0,369076224.0,15171584.0,92573696.0,73883648.0,192618496.0,109395968.0,156930048.0,38965248.0,41228288.0,169646080.0,204660736.0,4268898304.0,17.0,106.0,12.0
13,119207936.0,4269502464.0,4100460544.0,256905216.0,320786432.0,205225984.0,202747904.0,170221568.0,379203584.0,10999808.0,90943488.0,94556160.0,198426624.0,107732992.0,155068416.0,40110080.0,39008256.0,206833664.0,198692864.0,4264454144.0,17.0,106.0,13.0
14,128909312.0,4281679872.0,4111724544.0,263708672.0,329101312.0,212869120.0,214652928.0,180076544.0,382707712.0,21481472.0,99606528.0,93126656.0,204118016.0,116338688.0,163096576.0,47349760.0,46888960.0,188243968.0,210696192.0,4276080640.0,17.0,106.0,14.0
15,131467264.0,4287176704.0,4117061632.0,266891264.0,333047808.0,213891072.0,220323840.0,184506368.0,372543488.0,25655296.0,101259264.0,72486912.0,198326272.0,117995520.0,164952064.0,46237696.0,49076224.0,151058432.0,216662016.0,4280535040.0,17.0,106.0,15.0
16,121753600.0,4274989056.0,4105791488.0,260087808.0,324700160.0,206225408.0,208433152.0,174637056.0,369037312.0,15169536.0,92590080.0,73932800.0,192661504.0,109377536.0,156913664.0,38989824.0,41152512.0,169740288.0,204648448.0,4268912640.0,17.0,106.0,16.0
17,119216128.0,4269514752.0,4100493312.0,256933888.0,320759808.0,205217792.0,202838016.0,170229760.0,379170816.0,11024384.0,90963968.0,94564352.0,198512640.0,107747328.0,155049984.0,40134656.0,38987776.0,206919680.0,198727680.0,4264488960.0,17.0,106.0,17.0
18,128944128.0,4281718784.0,4111785984.0,263741440.0,329105408.0,212901888.0,214786048.0,180123648.0,382695424.0,21524480.0,99624960.0,93091840.0,204228608.0,116383744.0,163094528.0,47335424.0,46886912.0,188332032.0,210757632.0,4276125696.0,17.0,106.0,18.0
19,131504128.0,4287221760.0,4117094400.0,266924032.0,333047808.0,213921792.0,220456960.0,184559616.0,372580352.0,25708544.0,101265408.0,72443904.0,198434816.0,118050816.0,164978688.0,46217216.0,49088512.0,151156736.0,216721408.0,4280588288.0,17.0,106.0,19.0
20,121806848.0,4275027968.0,4105838592.0,260130816.0,324675584.0,206229504.0,208543744.0,174682112.0,369076224.0,15228928.0,92616704.0,73877504.0,192743424.0,109426688.0,156954624.0,39004160.0,41187328.0,169779200.0,204699648.0,4268945408.0,17.0,106.0,20.0
21,119250944.0,4269508608.0,4100515840.0,256931840.0,320684032.0,205176832.0,202876928.0,170248192.0,379201536.0,11042816.0,90961920.0,94511104.0,198549504.0,107759616.0,155095040.0,40136704.0,38977536.0,206940160.0,198727680.0,4264470528.0,17.0,106.0,21.0
22,128962560.0,4281683968.0,4111759360.0,263735296.0,329027584.0,212860928.0,214812672.0,180119552.0,382734336.0,21499904.0,99606528.0,93071360.0,204249088.0,116355072.0,163115008.0,47339520.0,46874624.0,188366848.0,210737152.0,4276088832.0,17.0,106.0,22.0
23,131502080.0,4287191040.0,4117080064.0,266885120.0,332961792.0,213882880.0,220489728.0,184516608.0,372606976.0,25679872.0,101255168.0,72456192.0,198438912.0,118013952.0,164964352.0,46215168.0,49090560.0,151214080.0,216682496.0,4280559616.0,17.0,106.0,23.0
24,121794560.0,4274982912.0,4105814016.0,260071424.0,324595712.0,206176256.0,208590848.0,174626816.0,369094656.0,15187968.0,92602368.0,73908224.0,192757760.0,109387776.0,156911616.0,39000064.0,41166848.0,169838592.0,204654592.0,4268931072.0,17.0,106.0,24.0
25,119246848.0,4269447168.0,4100509696.0,256866304.0,320593920.0,205109248.0,202917888.0,170172416.0,379185152.0,10973184.0,90945536.0,94521344.0,198565888.0,107698176.0,155017216.0,40118272.0,38934528.0,207028224.0,198658048.0,4264437760.0,17.0,106.0,25.0
26,128970752.0,4281661440.0,4111794176.0,263743488.0,328962048.0,212811776.0,214874112.0,180078592.0,382734336.0,21460992.0,99608576.0,93087744.0,204292096.0,116320256.0,163074048.0,47339520.0,46872576.0,188430336.0,210694144.0,4276084736.0,17.0,106.0,26.0
27,131549184.0,4287188992.0,4117139456.0,266975232.0,332959744.0,213864448.0,220598272.0,184539136.0,372635648.0,25681920.0,101261312.0,72470528.0,198514688.0,117983232.0,164962304.0,46211072.0,49129472.0,151267328.0,216700928.0,4280567808.0,17.0,106.0,27.0
28,121841664.0,4274997248.0,4105887744.0,260169728.0,324610048.0,206170112.0,208715776.0,174678016.0,369121280.0,15196160.0,92585984.0,73895936.0,192839680.0,109371392.0,156913664.0,38975488.0,41195520.0,169873408.0,204689408.0,4268945408.0,17.0,106.0,28.0
29,119300096.0,4269541376.0,4100644864.0,257009664.0,320634880.0,205137920.0,203079680.0,170276864.0,379215872.0,11040768.0,90961920.0,94486528.0,198668288.0,107730944.0,155072512.0,40112128.0,38991872.0,206985216.0,198739968.0,4264517632.0,17.0,106.0,29.0
30,129009664.0,4281747456.0,4111896576.0,263835648.0,328978432.0,212830208.0,215017472.0,180158464.0,382734336.0,21534720.0,99622912.0,93040640.0,204378112.0,116355072.0,163115008.0,47329280.0,46901248.0,188434432.0,210763776.0,4276137984.0,17.0,106.0,30.0
31,131555328.0,4287256576.0,4117135360.0,266983424.0,332916736.0,213854208.0,220702720.0,184573952.0,372604928.0,25694208.0,101257216.0,72445952.0,198580224.0,117989376.0,164976640.0,46196736.0,49090560.0,151314432.0,216707072.0,4280569856.0,17.0,106.0,31.0
32,121827328.0,4275066880.0,4105861120.0,260163584.0,324554752.0,206168064.0,208799744.0,174678016.0,369094656.0,15194112.0,92575744.0,73897984.0,192890880.0,109342720.0,156921856.0,38985728.0,41168896.0,169926656.0,204687360.0,4268933120.0,17.0,106.0,32.0
33,119287808.0,4269565952.0,4100573184.0,257011712.0,320595968.0,205137920.0,203175936.0,170254336.0,379213824.0,11030528.0,90937344.0,94527488.0,198719488.0,107694080.0,155056128.0,40142848.0,38957056.0,207046656.0,198733824.0,4264501248.0,17.0,106.0,33.0
34,128991232.0,4281708544.0,4111771648.0,263784448.0,328916992.0,212779008.0,215072768.0,180111360.0,382709760.0,21469184.0,99567616.0,93106176.0,204390400.0,116277248.0,163028992.0,47284224.0,46815232.0,188479488.0,210702336.0,4276086784.0,17.0,106.0,34.0
35,131532800.0,4287188992.0,4117030912.0,266928128.0,332845056.0,213796864.0,220723200.0,184512512.0,372555776.0,25593856.0,101197824.0,72488960.0,198576128.0,117901312.0,164864000.0,46116864.0,48971776.0,151347200.0,216635392.0,4280510464.0,17.0,106.0,35.0
36,121810944.0,4275009536.0,4105746432.0,260120576.0,324491264.0,206116864.0,208818176.0,174647296.0,369051648.0,15106048.0,92555264.0,73902080.0,192901120.0,109285376.0,156846080.0,38948864.0,41052160.0,169959424.0,204625920.0,4268879872.0,17.0,106.0,36.0
37,119300096.0,4269570048.0,4100489216.0,257021952.0,320583680.0,205142016.0,203233280.0,170299392.0,379205632.0,11012096.0,90966016.0,94527488.0,198762496.0,107683840.0,155021312.0,40155136.0,38895616.0,207073280.0,198727680.0,4264478720.0,17.0,106.0,37.0
38,129003520.0,4281757696.0,4111783936.0,263833600.0,328957952.0,212846592.0,215166976.0,180201472.0,382756864.0,21499904.0,99633152.0,93112320.0,204474368.0,116307968.0,163074048.0,47347712.0,46821376.0,188545024.0,210739200.0,4276101120.0,17.0,106.0,38.0
39,131561472.0,4287256576.0,4117082112.0,266969088.0,332924928.0,213872640.0,220860416.0,184653824.0,372645888.0,25671680.0,101279744.0,72505344.0,198678528.0,117968896.0,164966400.0,46170112.0,49027072.0,151406592.0,216698880.0,4280547328.0,17.0,106.0,39.0
40,121868288.0,4275077120.0,4105760768.0,260194304.0,324573184.0,206188544.0,208977920.0,174807040.0,369139712.0,15196160.0,92637184.0,73926656.0,193001472.0,109363200.0,156942336.0,38952960.0,41109504.0,169996288.0,204691456.0,4268920832.0,17.0,106.0,40.0
41,119308288.0,4269557760.0,4100485120.0,257030144.0,320573440.0,205144064.0,203307008.0,170364928.0,379217920.0,11020288.0,90988544.0,94494720.0,198793216.0,107702272.0,155058176.0,40116224.0,38860800.0,207058944.0,198723584.0,4264462336.0,17.0,106.0,41.0
42,128993280.0,4281694208.0,4111702016.0,263839744.0,328869888.0,212789248.0,215199744.0,180191232.0,382717952.0,21456896.0,99612672.0,93038592.0,204457984.0,116301824.0,163057664.0,47294464.0,46731264.0,188493824.0,210700288.0,4276070400.0,17.0,106.0,42.0
43,131520512.0,4287176704.0,4116998144.0,266993664.0,332750848.0,213778432.0,220864512.0,184600576.0,372570112.0,25581568.0,101232640.0,72423424.0,198631424.0,117913600.0,164884480.0,46125056.0,48908288.0,151377920.0,216633344.0,4280524800.0,17.0,106.0,43.0
44,121786368.0,4274968576.0,4105695232.0,260167680.0,324347904.0,206047232.0,208939008.0,174704640.0,369027072.0,15085568.0,92551168.0,73844736.0,192923648.0,109246464.0,156805120.0,38895616.0,40988672.0,169934848.0,204589056.0,4268869632.0,17.0,106.0,44.0
45,119226368.0,4269463552.0,4100376576.0,256962560.0,320364544.0,204982272.0,203282432.0,170289152.0,379125760.0,10924032.0,90910720.0,94443520.0,198719488.0,107583488.0,154927104.0,40036352.0,38787072.0,206977024.0,198617088.0,4264415232.0,17.0,106.0,45.0
46,128952320.0,4281653248.0,4111622144.0,263763968.0,328728576.0,212678656.0,215218176.0,180213760.0,382695424.0,21409792.0,99594240.0,93054976.0,204443648.0,116226048.0,163008512.0,47284224.0,46710784.0,188465152.0,210638848.0,4276051968.0,17.0,106.0,46.0
47,131518464.0,4287168512.0,4116928512.0,266977280.0,332687360.0,213714944.0,220932096.0,184668160.0,372586496.0,25616384.0,101255168.0,72482816.0,198682624.0,117899264.0,164921344.0,46182400.0,48945152.0,151396352.0,216635392.0,4280543232.0,17.0,106.0,47.0
48,121821184.0,4274999296.0,4105693184.0,260218880.0,324356096.0,206047232.0,209074176.0,174792704.0,369088512.0,15179776.0,92602368.0,73900032.0,193019904.0,109299712.0,156882944.0,38957056.0,41033728.0,169971712.0,204666880.0,4268941312.0,17.0,106.0,48.0
49,119289856.0,4269527040.0,4100417536.0,257091584.0,320407552.0,205051904.0,203476992.0,170373120.0,379187200.0,11051008.0,90982400.0,94478336.0,198858752.0,107667456.0,155006976.0,40093696.0,38830080.0,207028224.0,198754304.0,4264531968.0,17.0,106.0,49.0
50,128991232.0,4281706496.0,4111704064.0,263905280.0,328747008.0,212742144.0,215404544.0,180250624.0,382689280.0,21534720.0,99639296.0,93065216.0,204576768.0,116277248.0,163057664.0,47327232.0,46751744.0,188536832.0,210767872.0,4276166656.0,17.0,106.0,50.0
51,131526656.0,4287174656.0,4117002240.0,267055104.0,332666880.0,213747712.0,221063168.0,184668160.0,372555776.0,25681920.0,101271552.0,72470528.0,198762496.0,117909504.0,164925440.0,46178304.0,48961536.0,151500800.0,216700928.0,4280602624.0,17.0,106.0,51.0
52,121823232.0,4274956288.0,4105680896.0,260239360.0,324288512.0,206026752.0,209139712.0,174764032.0,369033216.0,15175680.0,92594176.0,73885696.0,193046528.0,109273088.0,156860416.0,38950912.0,41013248.0,170037248.0,204652544.0,4268951552.0,17.0,106.0,52.0
53,119257088.0,4269443072.0,4100358144.0,257067008.0,320317440.0,204961792.0,203476992.0,170313728.0,379109376.0,10981376.0,90925056.0,94447616.0,198832128.0,107585536.0,154947584.0,40058880.0,38793216.0,207003648.0,198674432.0,4264493056.0,17.0,106.0,53.0
54,128913408.0,4281567232.0,4111560704.0,263811072.0,328622080.0,212598784.0,215357440.0,180152320.0,382611456.0,21401600.0,99559424.0,93032448.0,204513280.0,116156416.0,162942976.0,47302656.0,46630912.0,188481536.0,210630656.0,4276086784.0,17.0,106.0,54.0
55,131457024.0,4287043584.0,4116850688.0,266934272.0,332531712.0,213606400.0,221028352.0,184547328.0,372500480.0,25544704.0,101206016.0,72439808.0,198705152.0,117798912.0,164792320.0,46098432.0,48807936.0,151443456.0,216569856.0,4280526848.0,17.0,106.0,55.0
56,121782272.0,4274886656.0,4105598976.0,260177920.0,324204544.0,205946880.0,209174528.0,174686208.0,369012736.0,15083520.0,92553216.0,73832448.0,193036288.0,109201408.0,156762112.0,38762496.0,40912896.0,169969664.0,204589056.0,4268929024.0,17.0,106.0,56.0
57,119230464.0,4269391872.0,4100268032.0,257017856.0,320245760.0,204926976.0,203548672.0,170289152.0,379097088.0,10938368.0,90916864.0,94386176.0,198866944.0,107556864.0,154929152.0,39929856.0,38727680.0,206989312.0,198651904.0,4264488960.0,17.0,106.0,57.0
58,128935936.0,4281581568.0,4111542272.0,263858176.0,328611840.0,212645888.0,215506944.0,180209664.0,382644224.0,21426176.0,99565568.0,92966912.0,204591104.0,116172800.0,163012608.0,47169536.0,46669824.0,188532736.0,210679808.0,4276123648.0,17.0,106.0,58.0
59,131497984.0,4287084544.0,4116838400.0,267005952.0,332560384.0,213680128.0,221188096.0,184651776.0,372543488.0,25597952.0,101226496.0,72374272.0,198799360.0,117854208.0,164894720.0,46043136.0,48873472.0,151519232.0,216643584.0,4280594432.0,17.0,106.0,59.0
60,121782272.0,4274890752.0,4105572352.0,260161536.0,324177920.0,205963264.0,209266688.0,174739456.0,368992256.0,15108096.0,92551168.0,73758720.0,193081344.0,109211648.0,156846080.0,38811648.0,40945664.0,170012672.0,204607488.0,4268949504.0,17.0,106.0,60.0
61,119238656.0,4269424640.0,4100280320.0,257024000.0,320227328.0,204945408.0,203642880.0,170313728.0,379095040.0,10971136.0,90914816.0,94330880.0,198889472.0,107567104.0,154980352.0,39972864.0,38762496.0,207032320.0,198674432.0,4264527872.0,17.0,106.0,61.0
62,128931840.0,4281589760.0,4111513600.0,263843840.0,328566784.0,212625408.0,215566336.0,180195328.0,382642176.0,21456896.0,99571712.0,92981248.0,204599296.0,116168704.0,163004416.0,47214592.0,46678016.0,188598272.0,210694144.0,4276158464.0,17.0,106.0,62.0
63,131418112.0,4287012864.0,4116760576.0,266954752.0,332439552.0,213585920.0,221192192.0,184555520.0,372477952.0,25563136.0,101148672.0,72417280.0,198754304.0,117751808.0,164804608.0,46004224.0,48801792.0,151568384.0,216598528.0,4280553472.0,17.0,106.0,63.0
64,121716736.0,4274821120.0,4105488384.0,260151296.0,324077568.0,205905920.0,209299456.0,174667776.0,368973824.0,15075328.0,92487680.0,73865216.0,193073152.0,109129728.0,156743680.0,38785024.0,40863744.0,170115072.0,204595200.0,4268929024.0,17.0,106.0,64.0
65,119181312.0,4269328384.0,4100175872.0,256972800.0,320116736.0,204886016.0,203657216.0,170262528.0,379076608.0,10924032.0,90869760.0,94445568.0,198903808.0,107481088.0,154882048.0,39964672.0,38668288.0,207106048.0,198635520.0,4264495104.0,17.0,106.0,65.0
66,128882688.0,4281489408.0,4111411200.0,263741440.0,328466432.0,212559872.0,215570432.0,180140032.0,382586880.0,21401600.0,99536896.0,93036544.0,204611584.0,116082688.0,162902016.0,47177728.0,46553088.0,188604416.0,210630656.0,4276103168.0,17.0,106.0,66.0
67,131461120.0,4287023104.0,4116744192.0,266938368.0,332443648.0,213630976.0,221302784.0,184582144.0,372525056.0,25602048.0,101203968.0,72513536.0,198852608.0,117762048.0,164792320.0,46043136.0,48764928.0,151629824.0,216631296.0,4280588288.0,17.0,106.0,67.0
68,121767936.0,4274892800.0,4105535488.0,260229120.0,324128768.0,205991936.0,209465344.0,174733312.0,369037312.0,15173632.0,92545024.0,73910272.0,193193984.0,109170688.0,156768256.0,38840320.0,40880128.0,170151936.0,204675072.0,4269006848.0,17.0,106.0,68.0
69,119224320.0,4269418496.0,4100237312.0,257114112.0,320188416.0,204955648.0,203841536.0,170330112.0,379146240.0,11024384.0,90914816.0,94416896.0,199002112.0,107528192.0,154904576.0,39985152.0,38699008.0,207120384.0,198737920.0,4264579072.0,17.0,106.0,69.0
70,128919552.0,4281581568.0,4111454208.0,263933952.0,328513536.0,212625408.0,215762944.0,180217856.0,382681088.0,21477376.0,99567616.0,93009920.0,204707840.0,116142080.0,162934784.0,47179776.0,46635008.0,188651520.0,210733056.0,4276183040.0,17.0,106.0,70.0
71,131438592.0,4287037440.0,4116692992.0,267042816.0,332410880.0,213618688.0,221401088.0,184621056.0,372543488.0,25610240.0,101201920.0,72486912.0,198905856.0,117760000.0,164796416.0,46024704.0,48824320.0,151678976.0,216649728.0,4280594432.0,17.0,106.0,71.0
72,121733120.0,4274851840.0,4105447424.0,260235264.0,324048896.0,205922304.0,209502208.0,174731264.0,369025024.0,15120384.0,92547072.0,73916416.0,193224704.0,109133824.0,156739584.0,38803456.0,40900608.0,170207232.0,204627968.0,4268967936.0,17.0,106.0,72.0
73,119183360.0,4269338624.0,4100136960.0,257050624.0,320075776.0,204861440.0,203833344.0,170285056.0,379092992.0,10944512.0,90896384.0,94486528.0,199012352.0,107462656.0,154824704.0,39936000.0,38686720.0,207171584.0,198645760.0,4264499200.0,17.0,106.0,73.0
74,128905216.0,4281509888.0,4111364096.0,263841792.0,328413184.0,212535296.0,215754752.0,180166656.0,382642176.0,21420032.0,99557376.0,93134848.0,204703744.0,116076544.0,162863104.0,47167488.0,46589952.0,188692480.0,210640896.0,4276109312.0,17.0,106.0,74.0
75,131452928.0,4286988288.0,4116643840.0,266969088.0,332335104.0,213538816.0,221425664.0,184590336.0,372539392.0,25559040.0,101189632.0,72609792.0,198899712.0,117708800.0,164726784.0,46012416.0,48775168.0,151719936.0,216569856.0,4280530944.0,17.0,106.0,75.0
76,121784320.0,4274835456.0,4105435136.0,260200448.0,324018176.0,205893632.0,209557504.0,174737408.0,369061888.0,15106048.0,92551168.0,74049536.0,193241088.0,109117440.0,156706816.0,38828032.0,40876032.0,170254336.0,204593152.0,4268947456.0,17.0,106.0,76.0
77,119291904.0,4269400064.0,4100218880.0,257085440.0,320090112.0,204902400.0,203968512.0,170354688.0,379174912.0,10993664.0,90945536.0,94603264.0,199067648.0,107509760.0,154849280.0,40005632.0,38672384.0,207185920.0,198684672.0,4264546304.0,17.0,106.0,77.0
78,128997376.0,4281587712.0,4111495168.0,263884800.0,328439808.0,212592640.0,215906304.0,180248576.0,382699520.0,21460992.0,99612672.0,93202432.0,204752896.0,116125696.0,162885632.0,47214592.0,46563328.0,188717056.0,210681856.0,4276170752.0,17.0,106.0,78.0
79,131559424.0,4287109120.0,4116809728.0,267048960.0,332402688.0,213645312.0,221620224.0,184696832.0,372598784.0,25628672.0,101265408.0,72675328.0,199010304.0,117788672.0,164780032.0,46092288.0,48758784.0,151799808.0,216657920.0,4280619008.0,17.0,106.0,79.0
80,121856000.0,4274950144.0,4105586688.0,260276224.0,324075520.0,205969408.0,209752064.0,174827520.0,369104896.0,15171584.0,92620800.0,74084352.0,193357824.0,109189120.0,156753920.0,38885376.0,40851456.0,170336256.0,204677120.0,4269017088.0,17.0,106.0,80.0
81,119273472.0,4269428736.0,4100274176.0,257089536.0,320086016.0,204920832.0,204095488.0,170371072.0,379168768.0,11005952.0,90961920.0,94595072.0,199114752.0,107526144.0,154843136.0,39962624.0,38645760.0,207253504.0,198703104.0,4264554496.0,17.0,106.0,81.0
82,128952320.0,4281567232.0,4111486976.0,263839744.0,328400896.0,212572160.0,215982080.0,180199424.0,382658560.0,21420032.0,99584000.0,93186048.0,204771328.0,116101120.0,162789376.0,47134720.0,46518272.0,188755968.0,210653184.0,4276111360.0,17.0,106.0,82.0
83,131491840.0,4287033344.0,4116754432.0,266977280.0,332316672.0,213587968.0,221630464.0,184586240.0,372535296.0,25550848.0,101214208.0,72693760.0,198967296.0,117727232.0,164589568.0,45998080.0,48715776.0,151848960.0,216586240.0,4280553472.0,17.0,106.0,83.0
84,121769984.0,4274831360.0,4105455616.0,260169728.0,323936256.0,205897728.0,209725440.0,174694400.0,369022976.0,15054848.0,92528640.0,74108928.0,193261568.0,109080576.0,156477440.0,38760448.0,40785920.0,170323968.0,204562432.0,4268908544.0,17.0,106.0,84.0
85,119265280.0,4269377536.0,4100186112.0,257032192.0,319995904.0,204881920.0,204113920.0,170293248.0,379127808.0,10913792.0,90898432.0,94640128.0,199090176.0,107436032.0,154576896.0,39899136.0,38586368.0,207220736.0,198629376.0,4264493056.0,17.0,106.0,85.0
86,128980992.0,4281552896.0,4111458304.0,263827456.0,328351744.0,212570112.0,216047616.0,180176896.0,382652416.0,21383168.0,99567616.0,93257728.0,204783616.0,116066304.0,162625536.0,47116288.0,46475264.0,188782592.0,210632704.0,4276115456.0,17.0,106.0,86.0
87,131528704.0,4287045632.0,4116725760.0,266967040.0,332292096.0,213616640.0,221732864.0,184614912.0,372535296.0,25565184.0,101224448.0,72742912.0,199004160.0,117725184.0,164503552.0,45989888.0,48666624.0,151885824.0,216600576.0,4280563712.0,17.0,106.0,87.0
88,121815040.0,4274886656.0,4105500672.0,260214784.0,323956736.0,205946880.0,209862656.0,174737408.0,369027072.0,15118336.0,92588032.0,74129408.0,193345536.0,109127680.0,156479488.0,38793216.0,40785920.0,170387456.0,204621824.0,4268957696.0,17.0,106.0,88.0
89,119281664.0,4269422592.0,4100268032.0,257071104.0,320002048.0,204926976.0,204234752.0,170328064.0,379119616.0,10985472.0,90959872.0,94625792.0,199176192.0,107493376.0,154613760.0,39942144.0,38600704.0,207261696.0,198694912.0,4264536064.0,17.0,106.0,89.0
90,128968704.0,4281581568.0,4111527936.0,263831552.0,328329216.0,212592640.0,216139776.0,180191232.0,382623744.0,21434368.0,99604480.0,93204480.0,204849152.0,116094976.0,162633728.0,47118336.0,46493696.0,188798976.0,210681856.0,4276140032.0,17.0,106.0,90.0
91,131502080.0,4287039488.0,4116783104.0,266921984.0,332226560.0,213587968.0,221790208.0,184590336.0,372475904.0,25559040.0,101218304.0,72658944.0,199034880.0,117719040.0,164487168.0,45959168.0,48662528.0,151891968.0,216606720.0,4280567808.0,17.0,106.0,91.0
92,121794560.0,4274847744.0,4105504768.0,260102144.0,323840000.0,205873152.0,209874944.0,174686208.0,368939008.0,15067136.0,92530688.0,74072064.0,193341440.0,109080576.0,156424192.0,38754304.0,40736768.0,170395648.0,204574720.0,4268929024.0,17.0,106.0,92.0
93,119271424.0,4269363200.0,4100247552.0,256962560.0,319881216.0,204834816.0,204236800.0,170256384.0,379035648.0,10921984.0,90863616.0,94607360.0,199139328.0,107413504.0,154521600.0,39901184.0,38549504.0,207290368.0,198627328.0,4264486912.0,17.0,106.0,93.0
94,128972800.0,4281511936.0,4111482880.0,263749632.0,328210432.0,212494336.0,216141824.0,180127744.0,382576640.0,21377024.0,99524608.0,93245440.0,204840960.0,116019200.0,162553856.0,47177728.0,46432256.0,188850176.0,210606080.0,4276088832.0,17.0,106.0,94.0
95,131485696.0,4286982144.0,4116713472.0,266864640.0,332120064.0,213495808.0,221792256.0,184530944.0,372453376.0,25505792.0,101142528.0,72734720.0,199034880.0,117645312.0,164413440.0,45996032.0,48605184.0,151930880.0,216514560.0,4280514560.0,17.0,106.0,95.0
96,121804800.0,4274845696.0,4105498624.0,260108288.0,323790848.0,205832192.0,209938432.0,174680064.0,368969728.0,15048704.0,92489728.0,74088448.0,193357824.0,109041664.0,156389376.0,38664192.0,40699904.0,170422272.0,204539904.0,4268902400.0,17.0,106.0,96.0
97,119296000.0,4269412352.0,4100300800.0,256991232.0,319866880.0,204828672.0,204345344.0,170311680.0,379090944.0,10932224.0,90888192.0,94537728.0,199192576.0,107423744.0,154550272.0,39835648.0,38535168.0,207267840.0,198643712.0,4264505344.0,17.0,106.0,97.0
98,129001472.0,4281595904.0,4111527936.0,263794688.0,328230912.0,212537344.0,216291328.0,180217856.0,382625792.0,21409792.0,99567616.0,93093888.0,204902400.0,116066304.0,162598912.0,47075328.0,46456832.0,188839936.0,210657280.0,4276127744.0,17.0,106.0,98.0
99,131547136.0,4287098880.0,4116752384.0,266964992.0,332177408.0,213587968.0,221997056.0,184645632.0,372535296.0,25585664.0,101216256.0,72597504.0,199141376.0,117745664.0,164489216.0,45942784.0,48658432.0,152039424.0,216619008.0,4280580096.0,17.0,106.0,99.0
100,121839616.0,4274917376.0,4105459712.0,260202496.0,323829760.0,205891584.0,210110464.0,174749696.0,369025024.0,15104000.0,92524544.0,73943040.0,193460224.0,109109248.0,156430336.0,38682624.0,40738816.0,170532864.0,204621824.0,4268957696.0,17.0,106.0,100.0
101,119281664.0,4269420544.0,4100179968.0,257052672.0,319856640.0,204830720.0,204455936.0,170315776.0,379086848.0,10954752.0,90875904.0,94380032.0,199247872.0,107429888.0,154527744.0,39809024.0,38533120.0,207349760.0,198668288.0,4264515584.0,17.0,106.0,101.0
102,128976896.0,4281573376.0,4111448064.0,263819264.0,328175616.0,212492288.0,216360960.0,180187136.0,382607360.0,21403648.0,99538944.0,92999680.0,204931072.0,116025344.0,162576384.0,47060992.0,46436352.0,188897280.0,210644992.0,4276103168.0,17.0,106.0,102.0
103,131495936.0,4287014912.0,4116658176.0,266911744.0,332050432.0,213487616.0,221990912.0,184567808.0,372494336.0,25507840.0,101134336.0,72534016.0,199129088.0,117637120.0,164423680.0,45897728.0,48613376.0,152111104.0,216549376.0,4280506368.0,17.0,106.0,103.0
104,121782272.0,4274835456.0,4105363456.0,260104192.0,323678208.0,205797376.0,210094080.0,174669824.0,368984064.0,15022080.0,92471296.0,73926656.0,193445888.0,109004800.0,156358656.0,38664192.0,40697856.0,170594304.0,204535808.0,4268879872.0,17.0,106.0,104.0
105,119281664.0,4269383680.0,4100124672.0,256974848.0,319746048.0,204802048.0,204496896.0,170278912.0,379090944.0,10895360.0,90865664.0,94396416.0,199274496.0,107374592.0,154486784.0,39823360.0,38522880.0,207417344.0,198621184.0,4264468480.0,17.0,106.0,105.0
106,128999424.0,4281567232.0,4111386624.0,263800832.0,328099840.0,212492288.0,216434688.0,180172800.0,382629888.0,21374976.0,99534848.0,93003776.0,204972032.0,115996672.0,162543616.0,47042560.0,46450688.0,188966912.0,210638848.0,4276099072.0,17.0,106.0,106.0
107,131569664.0,4287072256.0,4116678656.0,266993664.0,332058624.0,213547008.0,222152704.0,184639488.0,372563968.0,25571328.0,101203968.0,72558592.0,199211008.0,117688320.0,164472832.0,45942784.0,48672768.0,152154112.0,216627200.0,4280582144.0,17.0,106.0,107.0
108,121868288.0,4274915328.0,4105463808.0,260239360.0,323698688.0,205883392.0,210288640.0,174780416.0,369074176.0,15130624.0,92561408.0,73934848.0,193542144.0,109096960.0,156456960.0,38729728.0,40777728.0,170653696.0,204656640.0,4268984320.0,17.0,106.0,108.0
109,119326720.0,4269451264.0,4100220928.0,257097728.0,319748096.0,204843008.0,204664832.0,170379264.0,379148288.0,10997760.0,90918912.0,94341120.0,199342080.0,107452416.0,154568704.0,39843840.0,38582272.0,207472640.0,198733824.0,4264562688.0,17.0,106.0,109.0
110,129019904.0,4281606144.0,4111474688.0,263876608.0,328067072.0,212525056.0,216571904.0,180264960.0,382656512.0,21460992.0,99565568.0,92899328.0,205031424.0,116043776.0,162592768.0,47038464.0,46460928.0,189022208.0,210712576.0,4276150272.0,17.0,106.0,110.0
111,131559424.0,4287090688.0,4116750336.0,267005952.0,331991040.0,213549056.0,222232576.0,184674304.0,372551680.0,25597952.0,101210112.0,72423424.0,199254016.0,117686272.0,164456448.0,45928448.0,48642048.0,152219648.0,216635392.0,4280569856.0,17.0,106.0,111.0
112,121835520.0,4274896896.0,4105486336.0,260204544.0,323620864.0,205838336.0,210317312.0,174751744.0,369022976.0,15099904.0,92532736.0,73836544.0,193576960.0,109041664.0,156387328.0,38739968.0,40699904.0,170680320.0,204603392.0,4268929024.0,17.0,106.0,112.0
113,119296000.0,4269400064.0,4100198400.0,257052672.0,319653888.0,204781568.0,204677120.0,170319872.0,379072512.0,10938368.0,90873856.0,94298112.0,199352320.0,107364352.0,154482688.0,39870464.0,38506496.0,207472640.0,198653952.0,4264482816.0,17.0,106.0,113.0
114,129011712.0,4281552896.0,4111439872.0,263858176.0,327989248.0,212453376.0,216588288.0,180191232.0,382593024.0,21395456.0,99545088.0,92940288.0,205047808.0,115974144.0,162525184.0,47085568.0,46419968.0,189067264.0,210638848.0,4276092928.0,17.0,106.0,114.0
115,131540992.0,4287010816.0,4116703232.0,266987520.0,331878400.0,213465088.0,222240768.0,184584192.0,372484096.0,25524224.0,101169152.0,72472576.0,199258112.0,117612544.0,164372480.0,45912064.0,48582656.0,152236032.0,216567808.0,4280514560.0,17.0,106.0,115.0
116,121839616.0,4274841600.0,4105457664.0,260184064.0,323516416.0,205774848.0,210358272.0,174698496.0,368979968.0,15065088.0,92493824.0,73838592.0,193574912.0,108996608.0,156338176.0,38662144.0,40669184.0,170655744.0,204578816.0,4268902400.0,17.0,106.0,116.0
117,119320576.0,4269393920.0,4100229120.0,257069056.0,319596544.0,204759040.0,204759040.0,170315776.0,379090944.0,10964992.0,90873856.0,94271488.0,199401472.0,107370496.0,154484736.0,39819264.0,38518784.0,207468544.0,198678528.0,4264511488.0,17.0,106.0,117.0
118,129048576.0,4281591808.0,4111511552.0,263925760.0,327968768.0,212477952.0,216731648.0,180236288.0,382644224.0,21475328.0,99575808.0,92856320.0,205113344.0,116015104.0,162574336.0,47065088.0,46442496.0,189093888.0,210708480.0,4276162560.0,17.0,106.0,118.0
119,131610624.0,4287113216.0,4116811776.0,267106304.0,331925504.0,213516288.0,222441472.0,184692736.0,372563968.0,25667584.0,101240832.0,72404992.0,199348224.0,117702656.0,164526080.0,45936640.0,48642048.0,152332288.0,216688640.0,4280639488.0,17.0,106.0,119.0
120,121905152.0,4274946048.0,4105541632.0,260331520.0,323565568.0,205819904.0,210556928.0,174813184.0,369045504.0,15190016.0,92573696.0,73805824.0,193665024.0,109076480.0,156471296.0,38715392.0,40720384.0,170784768.0,204685312.0,4269025280.0,17.0,106.0,120.0
121,119369728.0,4269475840.0,4100216832.0,257200128.0,319606784.0,204785664.0,204929024.0,170393600.0,379107328.0,11028480.0,90941440.0,94244864.0,199456768.0,107417600.0,154580992.0,39854080.0,38504448.0,207550464.0,198746112.0,4264591360.0,17.0,106.0,121.0
122,129046528.0,4281608192.0,4111380480.0,263950336.0,327938048.0,212443136.0,216827904.0,180238336.0,382613504.0,21430272.0,99567616.0,92850176.0,205129728.0,115980288.0,162605056.0,47040512.0,46372864.0,189153280.0,210700288.0,4276154368.0,17.0,106.0,122.0
123,131579904.0,4287068160.0,4116619264.0,267087872.0,331851776.0,213469184.0,222488576.0,184629248.0,372539392.0,25565184.0,101195776.0,72435712.0,199356416.0,117612544.0,164497408.0,45910016.0,48570368.0,152428544.0,216614912.0,4280571904.0,17.0,106.0,123.0
124,121876480.0,4274892800.0,4105385984.0,260300800.0,323483648.0,205776896.0,210593792.0,174739456.0,369031168.0,15108096.0,92538880.0,73861120.0,193667072.0,109010944.0,156459008.0,38701056.0,40665088.0,170846208.0,204617728.0,4268959744.0,17.0,106.0,124.0
125,119324672.0,4269410304.0,4100132864.0,257132544.0,319500288.0,204728320.0,204951552.0,170326016.0,379097088.0,10946560.0,90894336.0,94271488.0,199419904.0,107343872.0,154550272.0,39802880.0,38436864.0,207542272.0,198664192.0,4264531968.0,17.0,106.0,125.0
126,129040384.0,4281587712.0,4111380480.0,263929856.0,327864320.0,212412416.0,216883200.0,180207616.0,382654464.0,21405696.0,99551232.0,92882944.0,205107200.0,115959808.0,162592768.0,47017984.0,46333952.0,189184000.0,210661376.0,4276142080.0,17.0,106.0,126.0
127,131608576.0,4287092736.0,4116676608.0,267094016.0,331825152.0,213463040.0,222574592.0,184668160.0,372606976.0,25561088.0,101216256.0,72464384.0,199358464.0,117649408.0,164505600.0,45924352.0,48535552.0,152449024.0,216619008.0,4280590336.0,17.0,106.0,127.0
128,121921536.0,4274931712.0,4105443328.0,260292608.0,323465216.0,205789184.0,210690048.0,174804992.0,369094656.0,15097856.0,92563456.0,73818112.0,193677312.0,109047808.0,156469248.0,38703104.0,40599552.0,170874880.0,204642304.0,4268990464.0,17.0,106.0,128.0
129,119394304.0,4269477888.0,4100186112.0,257179648.0,319506432.0,204783616.0,205082624.0,170397696.0,379154432.0,10958848.0,90943488.0,94197760.0,199462912.0,107399168.0,154587136.0,39843840.0,38383616.0,207542272.0,198733824.0,4264560640.0,17.0,106.0,129.0
130,129069056.0,4281626624.0,4111429632.0,263974912.0,327829504.0,212453376.0,216995840.0,180273152.0,382660608.0,21395456.0,99581952.0,92782592.0,205156352.0,116002816.0,162625536.0,47038464.0,46270464.0,189167616.0,210720768.0,4276152320.0,17.0,106.0,130.0
131,131594240.0,4287086592.0,4116690944.0,267073536.0,331724800.0,213448704.0,222627840.0,184662016.0,372553728.0,25530368.0,101199872.0,72364032.0,199362560.0,117645312.0,164511744.0,45879296.0,48453632.0,152463360.0,216637440.0,4280580096.0,17.0,106.0,131.0
132,121856000.0,4274880512.0,4105431040.0,260249600.0,323325952.0,205715456.0,210702336.0,174741504.0,369022976.0,15036416.0,92506112.0,73734144.0,193656832.0,108992512.0,156459008.0,38617088.0,40534016.0,170850304.0,204617728.0,4268947456.0,17.0,106.0,132.0
133,119304192.0,4269387776.0,4100116480.0,257103872.0,319346688.0,204666880.0,205062144.0,170301440.0,379058176.0,10874880.0,90847232.0,94148608.0,199438336.0,107327488.0,154554368.0,39718912.0,38336512.0,207542272.0,198678528.0,4264507392.0,17.0,106.0,133.0
134,129001472.0,4281544704.0,4111329280.0,263901184.0,327694336.0,212353024.0,216971264.0,180174848.0,382576640.0,21325824.0,99504128.0,92794880.0,205135872.0,115931136.0,162598912.0,46954496.0,46245888.0,189186048.0,210663424.0,4276109312.0,17.0,106.0,134.0
135,131536896.0,4287016960.0,4116609024.0,267038720.0,331610112.0,213372928.0,222623744.0,184573952.0,372500480.0,25456640.0,101154816.0,72404992.0,199358464.0,117575680.0,164474880.0,45834240.0,48435200.0,152510464.0,216590336.0,4280539136.0,17.0,106.0,135.0
136,121821184.0,4274845696.0,4105353216.0,260225024.0,323237888.0,205670400.0,210735104.0,174680064.0,368998400.0,14983168.0,92489728.0,73807872.0,193681408.0,108963840.0,156434432.0,38600704.0,40509440.0,170928128.0,204595200.0,4268916736.0,17.0,106.0,136.0
137,119300096.0,4269379584.0,4100079616.0,257073152.0,319287296.0,204627968.0,205117440.0,170283008.0,379058176.0,10852352.0,90869760.0,94191616.0,199483392.0,107339776.0,154556416.0,39749632.0,38332416.0,207591424.0,198672384.0,4264488960.0,17.0,106.0,137.0
138,129011712.0,4281561088.0,4111343616.0,263862272.0,327665664.0,212328448.0,217051136.0,180197376.0,382586880.0,21327872.0,99561472.0,92790784.0,205178880.0,115990528.0,162613248.0,47007744.0,46260224.0,189202432.0,210679808.0,4276103168.0,17.0,106.0,138.0
139,131538944.0,4287047680.0,4116613120.0,266991616.0,331599872.0,213358592.0,222713856.0,184614912.0,372504576.0,25473024.0,101210112.0,72386560.0,199397376.0,117647360.0,164503552.0,45897728.0,48445440.0,152504320.0,216610816.0,4280524800.0,17.0,106.0,139.0
140,121829376.0,4274888704.0,4105363456.0,260243456.0,323244032.0,205672448.0,210849792.0,174759936.0,369018880.0,15034368.0,92577792.0,73789440.0,193744896.0,109047808.0,156481536.0,38727680.0,40540160.0,170911744.0,204627968.0,4268918784.0,17.0,106.0,140.0
141,119293952.0,4269408256.0,4100077568.0,257118208.0,319268864.0,204636160.0,205232128.0,170342400.0,379080704.0,10897408.0,90910720.0,94150656.0,199518208.0,107388928.0,154566656.0,39774208.0,38305792.0,207554560.0,198696960.0,4264493056.0,17.0,106.0,141.0
142,128995328.0,4281548800.0,4111276032.0,263888896.0,327606272.0,212318208.0,217137152.0,180191232.0,382601216.0,21348352.0,99534848.0,92774400.0,205187072.0,115959808.0,162594816.0,46925824.0,46172160.0,189212672.0,210659328.0,4276084736.0,17.0,106.0,142.0
143,131520512.0,4287002624.0,4116547584.0,266979328.0,331526144.0,213329920.0,222785536.0,184592384.0,372533248.0,25458688.0,101187584.0,72407040.0,199395328.0,117583872.0,164491264.0,45824000.0,48336896.0,152530944.0,216559616.0,4280471552.0,17.0,106.0,143.0
144,121812992.0,4274823168.0,4105271296.0,260173824.0,323149824.0,205627392.0,210882560.0,174700544.0,369014784.0,14958592.0,92522496.0,73799680.0,193703936.0,108945408.0,156424192.0,38596608.0,40392704.0,170934272.0,204546048.0,4268845056.0,17.0,106.0,144.0
145,119271424.0,4269348864.0,4100003840.0,257030144.0,319164416.0,204576768.0,205240320.0,170237952.0,379058176.0,10782720.0,90839040.0,94173184.0,199454720.0,107255808.0,154505216.0,39729152.0,38164480.0,207581184.0,198586368.0,4264421376.0,17.0,106.0,145.0
146,128991232.0,4281544704.0,4111259648.0,263858176.0,327548928.0,212285440.0,217194496.0,180133888.0,382590976.0,21254144.0,99500032.0,92803072.0,205158400.0,115896320.0,162557952.0,46962688.0,46088192.0,189210624.0,210597888.0,4276058112.0,17.0,106.0,146.0
147,131549184.0,4287049728.0,4116568064.0,267034624.0,331532288.0,213348352.0,222906368.0,184588288.0,372533248.0,25417728.0,101175296.0,72419328.0,199411712.0,117606400.0,164470784.0,45832192.0,48293888.0,152565760.0,216571904.0,4280502272.0,17.0,106.0,147.0
148,121843712.0,4274903040.0,4105357312.0,260253696.0,323180544.0,205666304.0,211042304.0,174706688.0,369010688.0,14974976.0,92549120.0,73768960.0,193732608.0,109027328.0,156446720.0,38633472.0,40394752.0,170952704.0,204603392.0,4268904448.0,17.0,106.0,148.0
149,119318528.0,4269467648.0,4100136960.0,257173504.0,319236096.0,204654592.0,205449216.0,170326016.0,379099136.0,10868736.0,90933248.0,94140416.0,199530496.0,107390976.0,154574848.0,39784448.0,38201344.0,207603712.0,198701056.0,4264507392.0,17.0,106.0,149.0
150,129048576.0,4281640960.0,4111405056.0,264007680.0,327600128.0,212365312.0,217395200.0,180228096.0,382650368.0,21354496.0,99579904.0,92780544.0,205250560.0,116015104.0,162623488.0,46993408.0,46082048.0,189263872.0,210706432.0,4276129792.0,17.0,106.0,150.0
151,131588096.0,4287127552.0,4116672512.0,267143168.0,331544576.0,213411840.0,223070208.0,184629248.0,372572160.0,25505792.0,101218304.0,72429568.0,199481344.0,117653504.0,164540416.0,45862912.0,48283648.0,152655872.0,216639488.0,4280573952.0,17.0,106.0,151.0
152,121847808.0,4274929664.0,4105392128.0,260302848.0,323145728.0,205678592.0,211144704.0,174718976.0,369010688.0,14989312.0,92526592.0,73818112.0,193759232.0,109000704.0,156485632.0,38653952.0,40355840.0,171044864.0,204609536.0,4268922880.0,17.0,106.0,152.0
153,119273472.0,4269426688.0,4100116480.0,257120256.0,319152128.0,204589056.0,205494272.0,170285056.0,379033600.0,10823680.0,90845184.0,94187520.0,199520256.0,107309056.0,154566656.0,39823360.0,38139904.0,207636480.0,198639616.0,4264460288.0,17.0,106.0,153.0
154,128960512.0,4281559040.0,4111304704.0,263909376.0,327489536.0,212275200.0,217401344.0,180119552.0,382580736.0,21270528.0,99465216.0,92829696.0,205207552.0,115912704.0,162568192.0,46966784.0,46039040.0,189298688.0,210601984.0,4276056064.0,17.0,106.0,154.0
155,131500032.0,4287027200.0,4116533248.0,267063296.0,331431936.0,213319680.0,223072256.0,184526848.0,372529152.0,25405440.0,101097472.0,72460288.0,199432192.0,117549056.0,164421632.0,45750272.0,48216064.0,152688640.0,216539136.0,4280487936.0,17.0,106.0,155.0
156,121808896.0,4274884608.0,4105314304.0,260237312.0,323092480.0,205639680.0,211202048.0,174665728.0,369041408.0,14958592.0,92459008.0,73826304.0,193771520.0,108943360.0,156397568.0,38572032.0,40304640.0,171065344.0,204558336.0,4268896256.0,17.0,106.0,156.0
157,119285760.0,4269463552.0,4100126720.0,257146880.0,319168512.0,204662784.0,205643776.0,170295296.0,379140096.0,10868736.0,90845184.0,94175232.0,199591936.0,107327488.0,154552320.0,39718912.0,38156288.0,207683584.0,198694912.0,4264527872.0,17.0,106.0,157.0
158,128999424.0,4281647104.0,4111396864.0,263987200.0,327550976.0,212400128.0,217606144.0,180213760.0,382701568.0,21360640.0,99506176.0,92841984.0,205324288.0,115945472.0,162609152.0,46938112.0,46108672.0,189399040.0,210714624.0,4276156416.0,17.0,106.0,158.0
159,131540992.0,4287117312.0,4116666368.0,267137024.0,331499520.0,213444608.0,223281152.0,184653824.0,372621312.0,25536512.0,101181440.0,72491008.0,199565312.0,117622784.0,164532224.0,45844480.0,48318464.0,152784896.0,216666112.0,4280598528.0,17.0,106.0,159.0
160,121864192.0,4274960384.0,4105437184.0,260354048.0,323151872.0,205742080.0,211400704.0,174772224.0,369111040.0,15079424.0,92530688.0,73852928.0,193880064.0,109019136.0,156508160.0,38653952.0,40390656.0,171161600.0,204683264.0,4268998656.0,17.0,106.0,160.0
161,119351296.0,4269473792.0,4100149248.0,257175552.0,319148032.0,204652544.0,205740032.0,170305536.0,379125760.0,10899456.0,90871808.0,94146560.0,199618560.0,107343872.0,154578944.0,39794688.0,38154240.0,207691776.0,198713344.0,4264540160.0,17.0,106.0,161.0
162,129075200.0,4281610240.0,4111343616.0,263938048.0,327462912.0,212281344.0,217622528.0,180137984.0,382613504.0,21311488.0,99500032.0,92737536.0,205277184.0,115939328.0,162582528.0,46942208.0,45987840.0,189337600.0,210661376.0,4276115456.0,17.0,106.0,162.0
163,131604480.0,4287049728.0,4116590592.0,267067392.0,331366400.0,213291008.0,223262720.0,184524800.0,372510720.0,25419776.0,101105664.0,72394752.0,199469056.0,117542912.0,164456448.0,45715456.0,48140288.0,152756224.0,216553472.0,4280526848.0,17.0,106.0,163.0
164,121862144.0,4274833408.0,4105310208.0,260216832.0,322957312.0,205547520.0,211326976.0,174596096.0,368961536.0,14917632.0,92420096.0,73760768.0,193759232.0,108894208.0,156385280.0,38465536.0,40200192.0,171087872.0,204525568.0,4268890112.0,17.0,106.0,164.0
165,119332864.0,4269357056.0,4100007936.0,257089536.0,318986240.0,204503040.0,205705216.0,170196992.0,379021312.0,10786816.0,90791936.0,94105600.0,199548928.0,107247616.0,154494976.0,39606272.0,38004736.0,207652864.0,198608896.0,4264495104.0,17.0,106.0,165.0
166,129046528.0,4281513984.0,4111190016.0,263917568.0,327335936.0,212197376.0,217643008.0,180103168.0,382570496.0,21262336.0,99469312.0,92755968.0,205256704.0,115888128.0,162570240.0,46839808.0,45934592.0,189321216.0,210612224.0,4276109312.0,17.0,106.0,166.0
167,131606528.0,4287008768.0,4116453376.0,267075584.0,331284480.0,213248000.0,223338496.0,184530944.0,372527104.0,25425920.0,101150720.0,72423424.0,199512064.0,117561344.0,164491264.0,45750272.0,48140288.0,152780800.0,216561664.0,4280551424.0,17.0,106.0,167.0
168,121915392.0,4274868224.0,4105263104.0,260315136.0,322930688.0,205574144.0,211468288.0,174649344.0,368979968.0,14985216.0,92489728.0,73768960.0,193832960.0,108961792.0,156469248.0,38545408.0,40228864.0,171102208.0,204595200.0,4268972032.0,17.0,106.0,168.0
169,119359488.0,4269406208.0,4099997696.0,257196032.0,318973952.0,204537856.0,205850624.0,170242048.0,379011072.0,10858496.0,90849280.0,94081024.0,199608320.0,107315200.0,154601472.0,39688192.0,38031360.0,207634432.0,198682624.0,4264562688.0,17.0,106.0,169.0
170,129038336.0,4281544704.0,4111273984.0,263997440.0,327329792.0,212217856.0,217769984.0,180117504.0,382531584.0,21315584.0,99495936.0,92702720.0,205295616.0,115929088.0,162648064.0,46891008.0,45955072.0,189317120.0,210667520.0,4276148224.0,17.0,106.0,170.0
171,131577856.0,4287000576.0,4116609024.0,267141120.0,331270144.0,213245952.0,223428608.0,184526848.0,372453376.0,25460736.0,101124096.0,72355840.0,199520256.0,117569536.0,164528128.0,45707264.0,48132096.0,152729600.0,216594432.0,4280578048.0,17.0,106.0,171.0
172,121874432.0,4274827264.0,4105322496.0,260337664.0,322891776.0,205541376.0,211531776.0,174632960.0,368936960.0,14995456.0,92459008.0,73758720.0,193835008.0,108924928.0,156450816.0,38459392.0,40198144.0,171104256.0,204597248.0,4268969984.0,17.0,106.0,172.0
173,119318528.0,4269336576.0,4100042752.0,257167360.0,318908416.0,204480512.0,205889536.0,170170368.0,378972160.0,10829824.0,90826752.0,94074880.0,199587840.0,107255808.0,154533888.0,39616512.0,37980160.0,207640576.0,198645760.0,4264525824.0,17.0,106.0,173.0
174,128997376.0,4281458688.0,4111273984.0,263948288.0,327239680.0,212156416.0,217788416.0,180017152.0,382496768.0,21252096.0,99475456.0,92702720.0,205258752.0,115828736.0,162551808.0,46813184.0,45856768.0,189302784.0,210606080.0,4276103168.0,17.0,106.0,174.0
175,131528704.0,4286910464.0,4116484096.0,267079680.0,331157504.0,213192704.0,223453184.0,184449024.0,372471808.0,25378816.0,101115904.0,72398848.0,199503872.0,117458944.0,164454400.0,45686784.0,48048128.0,152770560.0,216522752.0,4280532992.0,17.0,106.0,175.0
176,121856000.0,4274798592.0,4105256960.0,260331520.0,322834432.0,205559808.0,211638272.0,174626816.0,369018880.0,14979072.0,92506112.0,73801728.0,193880064.0,108892160.0,156454912.0,38516736.0,40200192.0,171155456.0,204589056.0,4268969984.0,17.0,106.0,176.0
177,119336960.0,4269359104.0,4100005888.0,257165312.0,318889984.0,204531712.0,206022656.0,170223616.0,379054080.0,10866688.0,90871808.0,94111744.0,199655424.0,107272192.0,154568704.0,39649280.0,38002688.0,207663104.0,198676480.0,4264558592.0,17.0,106.0,177.0
178,129040384.0,4281520128.0,4111257600.0,263962624.0,327266304.0,212230144.0,217950208.0,180119552.0,382595072.0,21313536.0,99528704.0,92708864.0,205348864.0,115898368.0,162607104.0,46850048.0,45883392.0,189335552.0,210655232.0,4276152320.0,17.0,106.0,178.0
179,131579904.0,4287014912.0,4116596736.0,267122688.0,331227136.0,213293056.0,223653888.0,184569856.0,372563968.0,25473024.0,101193728.0,72390656.0,199604224.0,117575680.0,164519936.0,45744128.0,48084992.0,152807424.0,216604672.0,4280604672.0,17.0,106.0,179.0
180,121858048.0,4274849792.0,4105459712.0,260333568.0,322844672.0,205584384.0,211765248.0,174686208.0,369051648.0,15001600.0,92526592.0,73730048.0,193916928.0,108951552.0,156479488.0,38506496.0,40163328.0,171137024.0,204617728.0,4268992512.0,17.0,106.0,180.0
181,119310336.0,4269375488.0,4100235264.0,257193984.0,318857216.0,204539904.0,206125056.0,170254336.0,379062272.0,10848256.0,90857472.0,94023680.0,199677952.0,107278336.0,154585088.0,39608320.0,37961728.0,207644672.0,198690816.0,4264574976.0,17.0,106.0,181.0
182,128964608.0,4281460736.0,4111386624.0,263936000.0,327155712.0,212174848.0,217964544.0,180076544.0,382533632.0,21233664.0,99481600.0,92651520.0,205309952.0,115838976.0,162584576.0,46772224.0,45799424.0,189325312.0,210589696.0,4276115456.0,17.0,106.0,182.0
183,131502080.0,4286916608.0,4116664320.0,267034624.0,331094016.0,213209088.0,223612928.0,184508416.0,372475904.0,25364480.0,101146624.0,72378368.0,199548928.0,117477376.0,164470784.0,45662208.0,47984640.0,152813568.0,216506368.0,4280522752.0,17.0,106.0,183.0
184,121788416.0,4274733056.0,4105369600.0,260204544.0,322689024.0,205488128.0,211712000.0,174616576.0,368955392.0,14893056.0,92483584.0,73734144.0,193857536.0,108853248.0,156385280.0,38438912.0,40073216.0,171143168.0,204503040.0,4268904448.0,17.0,106.0,184.0
185,119234560.0,4269256704.0,4100096000.0,257073152.0,318693376.0,204435456.0,206071808.0,170194944.0,378974208.0,10745856.0,90826752.0,94031872.0,199618560.0,107196416.0,154454016.0,39546880.0,37863424.0,207644672.0,198565888.0,4264480768.0,17.0,106.0,185.0
186,128962560.0,4281436160.0,4111384576.0,263886848.0,327053312.0,212150272.0,218009600.0,180117504.0,382504960.0,21223424.0,99497984.0,92704768.0,205322240.0,115830784.0,162525184.0,46784512.0,45780992.0,189327360.0,210556928.0,4276109312.0,17.0,106.0,186.0
187,131518464.0,4286930944.0,4116664320.0,267051008.0,331024384.0,213221376.0,223711232.0,184590336.0,372459520.0,25395200.0,101152768.0,72398848.0,199575552.0,117510144.0,164444160.0,45682688.0,48011264.0,152791040.0,216510464.0,4280551424.0,17.0,106.0,187.0
188,121817088.0,4274788352.0,4105414656.0,260253696.0,322643968.0,205520896.0,211828736.0,174700544.0,368934912.0,14940160.0,92487680.0,73715712.0,193896448.0,108898304.0,156385280.0,38469632.0,40101888.0,171110400.0,204531712.0,4268953600.0,17.0,106.0,188.0
189,119267328.0,4269334528.0,4100145152.0,257144832.0,318687232.0,204468224.0,206209024.0,170287104.0,378976256.0,10805248.0,90845184.0,93976576.0,199661568.0,107247616.0,154490880.0,39634944.0,37918720.0,207560704.0,198621184.0,4264534016.0,17.0,106.0,189.0
190,128964608.0,4281483264.0,4111341568.0,263958528.0,327063552.0,212158464.0,218136576.0,180185088.0,382504960.0,21282816.0,99522560.0,92620800.0,205373440.0,115873792.0,162568192.0,46870528.0,45848576.0,189292544.0,210614272.0,4276131840.0,17.0,106.0,190.0
191,131508224.0,4286949376.0,4116590592.0,267102208.0,330991616.0,213198848.0,223797248.0,184608768.0,372463616.0,25440256.0,101160960.0,72341504.0,199628800.0,117524480.0,164460544.0,45709312.0,48058368.0,152842240.0,216549376.0,4280569856.0,17.0,106.0,191.0
192,121792512.0,4274769920.0,4105293824.0,260286464.0,322590720.0,205471744.0,211884032.0,174688256.0,368953344.0,14964736.0,92463104.0,73687040.0,193927168.0,108881920.0,156379136.0,38414336.0,40110080.0,171145216.0,204533760.0,4268953600.0,17.0,106.0,192.0
193,119232512.0,4269268992.0,4099971072.0,257124352.0,318601216.0,204402688.0,206233600.0,170244096.0,378974208.0,10801152.0,90793984.0,93982720.0,199684096.0,107204608.0,154468352.0,39507968.0,37871616.0,207650816.0,198582272.0,4264507392.0,17.0,106.0,193.0
194,128909312.0,4281405440.0,4111196160.0,263925760.0,326938624.0,212092928.0,218144768.0,180103168.0,382507008.0,21235712.0,99454976.0,92663808.0,205369344.0,115800064.0,162502656.0,46733312.0,45770752.0,189366272.0,210542592.0,4276092928.0,17.0,106.0,194.0
195,131442688.0,4286877696.0,4116432896.0,267063296.0,330876928.0,213151744.0,223813632.0,184532992.0,372475904.0,25356288.0,101103616.0,72396800.0,199612416.0,117448704.0,164409344.0,45649920.0,47953920.0,152875008.0,216471552.0,4280512512.0,17.0,106.0,195.0
196,121759744.0,4274749440.0,4105203712.0,260284416.0,322523136.0,205484032.0,211968000.0,174657536.0,368998400.0,14925824.0,92442624.0,73748480.0,193957888.0,108840960.0,156391424.0,38432768.0,40046592.0,171186176.0,204515328.0,4268935168.0,17.0,106.0,196.0
197,119252992.0,4269297664.0,4099940352.0,257157120.0,318574592.0,204435456.0,206362624.0,170231808.0,379062272.0,10809344.0,90773504.0,94027776.0,199755776.0,107190272.0,154494976.0,39530496.0,37840896.0,207675392.0,198604800.0,4264525824.0,17.0,106.0,197.0
198,128968704.0,4281458688.0,4111179776.0,263954432.0,326959104.0,212127744.0,218288128.0,180117504.0,382590976.0,21270528.0,99434496.0,92665856.0,205445120.0,115818496.0,162523136.0,46741504.0,45754368.0,189392896.0,210599936.0,4276133888.0,17.0,106.0,198.0
199,131545088.0,4286973952.0,4116482048.0,267102208.0,330926080.0,213204992.0,223991808.0,184569856.0,372568064.0,25452544.0,101132288.0,72404992.0,199710720.0,117506048.0,164456448.0,45684736.0,47994880.0,152936448.0,216559616.0,4280604672.0,17.0,106.0,199.0
200,121819136.0,4274814976.0,4105246720.0,260306944.0,322551808.0,205498368.0,212115456.0,174673920.0,369051648.0,14993408.0,92475392.0,73750528.0,194033664.0,108886016.0,156399616.0,38483968.0,40081408.0,171239424.0,204566528.0,4268988416.0,17.0,106.0,200.0
201,119259136.0,4269330432.0,4099975168.0,257153024.0,318562304.0,204421120.0,206469120.0,170217472.0,379058176.0,10823680.0,90812416.0,93990912.0,199782400.0,107218944.0,154478592.0,39575552.0,37869568.0,207650816.0,198625280.0,4264531968.0,17.0,106.0,201.0
202,128952320.0,4281460736.0,4111194112.0,263942144.0,326918144.0,212111360.0,218372096.0,180101120.0,382580736.0,21250048.0,99461120.0,92655616.0,205465600.0,115814400.0,162510848.0,46743552.0,45746176.0,189396992.0,210593792.0,4276125696.0,17.0,106.0,202.0
203,131497984.0,4286922752.0,4116441088.0,267059200.0,330842112.0,213149696.0,224032768.0,184530944.0,372512768.0,25382912.0,101136384.0,72429568.0,199710720.0,117465088.0,164411392.0,45651968.0,47949824.0,152965120.0,216518656.0,4280559616.0,17.0,106.0,203.0
204,121780224.0,4274737152.0,4105187328.0,260222976.0,322457600.0,205424640.0,212131840.0,174618624.0,368994304.0,14917632.0,92471296.0,73791488.0,194021376.0,108828672.0,156358656.0,38447104.0,40005632.0,171245568.0,204513280.0,4268929024.0,17.0,106.0,204.0
205,119224320.0,4269248512.0,4099917824.0,257073152.0,318517248.0,204349440.0,206493696.0,170184704.0,379013120.0,10768384.0,90806272.0,94031872.0,199757824.0,107163648.0,154421248.0,39565312.0,37758976.0,207683584.0,198578176.0,4264499200.0,17.0,106.0,205.0
206,128927744.0,4281391104.0,4111161344.0,263878656.0,326903808.0,212011008.0,218404864.0,180080640.0,382517248.0,21215232.0,99463168.0,92639232.0,205436928.0,115775488.0,162451456.0,46782464.0,45656064.0,189427712.0,210544640.0,4276092928.0,17.0,106.0,206.0
207,131508224.0,4286914560.0,4116494336.0,267065344.0,330901504.0,213116928.0,224129024.0,184557568.0,372520960.0,25413632.0,101154816.0,72376320.0,199729152.0,117485568.0,164390912.0,45672448.0,47892480.0,153024512.0,216524800.0,4280571904.0,17.0,106.0,207.0
208,121843712.0,4274814976.0,4105314304.0,260317184.0,322549760.0,205473792.0,212295680.0,174727168.0,369037312.0,14991360.0,92520448.0,73695232.0,194066432.0,108912640.0,156362752.0,38447104.0,39981056.0,171335680.0,204589056.0,4269006848.0,17.0,106.0,208.0
209,119314432.0,4269357056.0,4100050944.0,257173504.0,318558208.0,204414976.0,206663680.0,170289152.0,379031552.0,10854400.0,90851328.0,93870080.0,199798784.0,107249664.0,154437632.0,39546880.0,37758976.0,207732736.0,198658048.0,4264574976.0,17.0,106.0,209.0
210,128993280.0,4281489408.0,4111273984.0,263983104.0,326912000.0,212094976.0,218566656.0,180162560.0,382550016.0,21297152.0,99502080.0,92491776.0,205473792.0,115845120.0,162484224.0,46786560.0,45651968.0,189480960.0,210624512.0,4276158464.0,17.0,106.0,210.0
211,131514368.0,4286928896.0,4116502528.0,267055104.0,330835968.0,213123072.0,224208896.0,184563712.0,372477952.0,25413632.0,101148672.0,72243200.0,199704576.0,117491712.0,164374528.0,45672448.0,47847424.0,153024512.0,216522752.0,4280569856.0,17.0,106.0,211.0
212,121784320.0,4274749440.0,4105246720.0,260237312.0,322392064.0,205404160.0,212314112.0,174653440.0,368953344.0,14934016.0,92452864.0,73584640.0,194021376.0,108855296.0,156313600.0,38406144.0,39909376.0,171309056.0,204519424.0,4268945408.0,17.0,106.0,212.0
213,119238656.0,4269273088.0,4100005888.0,257110016.0,318398464.0,204328960.0,206682112.0,170213376.0,378972160.0,10766336.0,90791936.0,93816832.0,199778304.0,107182080.0,154423296.0,39520256.0,37683200.0,207722496.0,198586368.0,4264507392.0,17.0,106.0,213.0
214,128925696.0,4281409536.0,4111210496.0,263882752.0,326762496.0,212004864.0,218578944.0,180074496.0,382480384.0,21176320.0,99452928.0,92491776.0,205436928.0,115763200.0,162467840.0,46774272.0,45561856.0,189478912.0,210532352.0,4276086784.0,17.0,106.0,214.0
215,131489792.0,4286883840.0,4116434944.0,267026432.0,330713088.0,213063680.0,224256000.0,184504320.0,372467712.0,25313280.0,101132288.0,72306688.0,199704576.0,117428224.0,164382720.0,45723648.0,47781888.0,153124864.0,216465408.0,4280524800.0,17.0,106.0,215.0
216,121800704.0,4274743296.0,4105230336.0,260239360.0,322322432.0,205375488.0,212398080.0,174628864.0,368963584.0,14882816.0,92495872.0,73644032.0,194045952.0,108820480.0,156340224.0,38500352.0,39888896.0,171372544.0,204505088.0,4268929024.0,17.0,106.0,216.0
217,119252992.0,4269283328.0,4100014080.0,257134592.0,318355456.0,204324864.0,206796800.0,170211328.0,378986496.0,10764288.0,90824704.0,93814784.0,199811072.0,107165696.0,154423296.0,39471104.0,37662720.0,207724544.0,198600704.0,4264521728.0,17.0,106.0,217.0
218,128950272.0,4281446400.0,4111284224.0,263929856.0,326737920.0,212035584.0,218736640.0,180097024.0,382507008.0,21229568.0,99479552.0,92446720.0,205494272.0,115787776.0,162465792.0,46741504.0,45570048.0,189511680.0,210587648.0,4276129792.0,17.0,106.0,218.0
219,131510272.0,4286957568.0,4116588544.0,267081728.0,330719232.0,213121024.0,224446464.0,184557568.0,372490240.0,25407488.0,101154816.0,72226816.0,199761920.0,117467136.0,164392960.0,45660160.0,47804416.0,153161728.0,216551424.0,4280590336.0,17.0,106.0,219.0
220,121800704.0,4274806784.0,4105332736.0,260317184.0,322334720.0,205420544.0,212576256.0,174684160.0,368986112.0,14974976.0,92504064.0,73551872.0,194078720.0,108861440.0,156360704.0,38438912.0,39880704.0,171417600.0,204582912.0,4268988416.0,17.0,106.0,220.0
221,119269376.0,4269344768.0,4100024320.0,257177600.0,318341120.0,204349440.0,206944256.0,170237952.0,378980352.0,10848256.0,90839040.0,93747200.0,199829504.0,107188224.0,154447872.0,39553024.0,37658624.0,207775744.0,198658048.0,4264564736.0,17.0,106.0,221.0
222,128960512.0,4281466880.0,4111230976.0,263931904.0,326684672.0,211996672.0,218826752.0,180076544.0,382490624.0,21262336.0,99465216.0,92432384.0,205512704.0,115775488.0,162451456.0,46743552.0,45529088.0,189564928.0,210593792.0,4276125696.0,17.0,106.0,222.0
223,131502080.0,4286912512.0,4116465664.0,267020288.0,330622976.0,213016576.0,224468992.0,184469504.0,372436992.0,25368576.0,101091328.0,72243200.0,199741440.0,117397504.0,164296704.0,45578240.0,47718400.0,153186304.0,216492032.0,4280543232.0,17.0,106.0,223.0
224,121792512.0,4274745344.0,4105181184.0,260206592.0,322222080.0,205289472.0,212570112.0,174567424.0,368912384.0,14888960.0,92409856.0,73580544.0,194031616.0,108750848.0,156182528.0,38340608.0,39780352.0,171423744.0,204492800.0,4268929024.0,17.0,106.0,224.0
225,119259136.0,4269283328.0,4099901440.0,257060864.0,318240768.0,204238848.0,206952448.0,170147840.0,378929152.0,10758144.0,90748928.0,93794304.0,199796736.0,107071488.0,154243072.0,39462912.0,37552128.0,207757312.0,198574080.0,4264511488.0,17.0,106.0,225.0
226,129013760.0,4281475072.0,4111165440.0,263888896.0,326678528.0,211984384.0,218933248.0,180092928.0,382521344.0,21254144.0,99448832.0,92510208.0,205545472.0,115736576.0,162322432.0,46751744.0,45508608.0,189601792.0,210597888.0,4276158464.0,17.0,106.0,226.0
227,131571712.0,4286949376.0,4116439040.0,267026432.0,330643456.0,213047296.0,224612352.0,184516608.0,372492288.0,25419776.0,101111808.0,72312832.0,199809024.0,117413888.0,164229120.0,45658112.0,47720448.0,153243648.0,216541184.0,4280600576.0,17.0,106.0,227.0
228,121874432.0,4274817024.0,4105256960.0,260276224.0,322260992.0,205365248.0,212744192.0,174630912.0,368982016.0,14989312.0,92461056.0,73629696.0,194136064.0,108826624.0,156184576.0,38447104.0,39825408.0,171464704.0,204589056.0,4269027328.0,17.0,106.0,228.0
229,119322624.0,4269361152.0,4100003840.0,257150976.0,318267392.0,204302336.0,207128576.0,170211328.0,378990592.0,10860544.0,90814464.0,93806592.0,199884800.0,107165696.0,154261504.0,39559168.0,37627904.0,207740928.0,198684672.0,4264603648.0,17.0,106.0,229.0
230,129013760.0,4281497600.0,4111200256.0,263929856.0,326643712.0,212006912.0,219039744.0,180103168.0,382517248.0,21313536.0,99502080.0,92479488.0,205588480.0,115779584.0,162301952.0,46784512.0,45557760.0,189564928.0,210649088.0,4276185088.0,17.0,106.0,230.0
231,131530752.0,4286939136.0,4116430848.0,267034624.0,330573824.0,213039104.0,224688128.0,184520704.0,372494336.0,25440256.0,101167104.0,72302592.0,199849984.0,117432320.0,164214784.0,45690880.0,47753216.0,153264128.0,216559616.0,4280580096.0,17.0,106.0,231.0
232,121798656.0,4274771968.0,4105160704.0,260220928.0,322160640.0,205324288.0,212799488.0,174600192.0,368977920.0,14964736.0,92477440.0,73633792.0,194164736.0,108791808.0,156131328.0,38436864.0,39817216.0,171479040.0,204566528.0,4268961792.0,17.0,106.0,232.0
233,119263232.0,4269318144.0,4099903488.0,257095680.0,318177280.0,204267520.0,207171584.0,170166272.0,378998784.0,10815488.0,90812416.0,93849600.0,199913472.0,107114496.0,154187776.0,39510016.0,37609472.0,207814656.0,198639616.0,4264538112.0,17.0,106.0,233.0
234,128948224.0,4281438208.0,4111077376.0,263864320.0,326510592.0,211935232.0,219056128.0,180033536.0,382550016.0,21241856.0,99463168.0,92555264.0,205604864.0,115707904.0,162211840.0,46745600.0,45510656.0,189632512.0,210583552.0,4276119552.0,17.0,106.0,234.0
235,131475456.0,4286887936.0,4116273152.0,266954752.0,330463232.0,212975616.0,224718848.0,184444928.0,372504576.0,25370624.0,101105664.0,72349696.0,199847936.0,117340160.0,164102144.0,45582336.0,47693824.0,153290752.0,216487936.0,4280539136.0,17.0,106.0,235.0
236,121767936.0,4274743296.0,4105048064.0,260210688.0,322062336.0,205277184.0,212848640.0,174565376.0,368979968.0,14895104.0,92438528.0,73629696.0,194172928.0,108722176.0,156053504.0,38311936.0,39766016.0,171501568.0,204511232.0,4268939264.0,17.0,106.0,236.0
237,119232512.0,4269303808.0,4099776512.0,257093632.0,318087168.0,204249088.0,207237120.0,170178560.0,378992640.0,10776576.0,90793984.0,93804544.0,199938048.0,107081728.0,154163200.0,39444480.0,37558272.0,207794176.0,198604800.0,4264521728.0,17.0,106.0,237.0
238,128954368.0,4281489408.0,4111038464.0,263909376.0,326508544.0,211972096.0,219191296.0,180094976.0,382527488.0,21248000.0,99473408.0,92465152.0,205637632.0,115746816.0,162222080.0,46684160.0,45488128.0,189585408.0,210608128.0,4276142080.0,17.0,106.0,238.0
239,131489792.0,4286959616.0,4116340736.0,267053056.0,330481664.0,213035008.0,224874496.0,184518656.0,372512768.0,25395200.0,101138432.0,72255488.0,199882752.0,117426176.0,164126720.0,45572096.0,47675392.0,153280512.0,216549376.0,4280580096.0,17.0,106.0,239.0
240,121792512.0,4274810880.0,4105121792.0,260278272.0,322107392.0,205338624.0,213008384.0,174637056.0,368996352.0,14940160.0,92477440.0,73570304.0,194195456.0,108824576.0,156080128.0,38350848.0,39766016.0,171511808.0,204584960.0,4268982272.0,17.0,106.0,240.0
241,119265280.0,4269352960.0,4099889152.0,257140736.0,318130176.0,204265472.0,207372288.0,170205184.0,378984448.0,10797056.0,90818560.0,93741056.0,199944192.0,107153408.0,154163200.0,39469056.0,37562368.0,207783936.0,198653952.0,4264552448.0,17.0,106.0,241.0
242,128952320.0,4281475072.0,4111060992.0,263901184.0,326490112.0,211931136.0,219254784.0,180058112.0,382486528.0,21209088.0,99434496.0,92401664.0,205600768.0,115716096.0,162158592.0,46657536.0,45418496.0,189601792.0,210585600.0,4276107264.0,17.0,106.0,242.0
243,131495936.0,4286928896.0,4116316160.0,267026432.0,330455040.0,212987904.0,224919552.0,184477696.0,372463616.0,25344000.0,101079040.0,72228864.0,199854080.0,117356544.0,164052992.0,45520896.0,47611904.0,153321472.0,216508416.0,4280528896.0,17.0,106.0,243.0
244,121794560.0,4274774016.0,4105101312.0,260237312.0,322048000.0,205291520.0,213028864.0,174583808.0,368947200.0,14870528.0,92428288.0,73570304.0,194195456.0,108734464.0,156000256.0,38303744.0,39677952.0,171563008.0,204523520.0,4268910592.0,17.0,106.0,244.0
245,119281664.0,4269324288.0,4099854336.0,257142784.0,318068736.0,204251136.0,207425536.0,170176512.0,378961920.0,10754048.0,90763264.0,93759488.0,199966720.0,107087872.0,154091520.0,39428096.0,37492736.0,207855616.0,198617088.0,4264507392.0,17.0,106.0,245.0
246,128987136.0,4281475072.0,4111091712.0,263952384.0,326467584.0,211945472.0,219336704.0,180062208.0,382500864.0,21209088.0,99424256.0,92436480.0,205639680.0,115720192.0,162142208.0,46661632.0,45398016.0,189683712.0,210589696.0,4276103168.0,17.0,106.0,246.0
247,131555328.0,4286980096.0,4116402176.0,267098112.0,330450944.0,213010432.0,225026048.0,184506368.0,372494336.0,25370624.0,101103616.0,72247296.0,199919616.0,117411840.0,164050944.0,45545472.0,47605760.0,153421824.0,216526848.0,4280543232.0,17.0,106.0,247.0
248,121862144.0,4274845696.0,4105162752.0,260300800.0,322050048.0,205314048.0,213159936.0,174639104.0,368979968.0,14929920.0,92432384.0,73512960.0,194230272.0,108822528.0,156000256.0,38287360.0,39677952.0,171577344.0,204564480.0,4268961792.0,17.0,106.0,248.0
249,119318528.0,4269393920.0,4099917824.0,257187840.0,318060544.0,204244992.0,207534080.0,170213376.0,378982400.0,10809344.0,90789888.0,93638656.0,199958528.0,107161600.0,154089472.0,39413760.0,37472256.0,207779840.0,198637568.0,4264546304.0,17.0,106.0,249.0
250,129046528.0,4281554944.0,4111128576.0,264028160.0,326490112.0,211947520.0,219471872.0,180113408.0,382533632.0,21258240.0,99465216.0,92305408.0,205664256.0,115767296.0,162152448.0,46659584.0,45400064.0,189620224.0,210632704.0,4276150272.0,17.0,106.0,250.0
251,131600384.0,4287016960.0,4116365312.0,267165696.0,330450944.0,212996096.0,225142784.0,184545280.0,372539392.0,25389056.0,101140480.0,72151040.0,199936000.0,117430272.0,164063232.0,45574144.0,47613952.0,153403392.0,216555520.0,4280578048.0,17.0,106.0,251.0
252,121874432.0,4274841600.0,4105095168.0,260356096.0,322007040.0,205264896.0,213233664.0,174618624.0,369014784.0,14895104.0,92446720.0,73478144.0,194228224.0,108783616.0,155975680.0,38313984.0,39655424.0,171571200.0,204548096.0,4268945408.0,17.0,106.0,252.0
253,119304192.0,4269346816.0,4099805184.0,257175552.0,317976576.0,204169216.0,207568896.0,170137600.0,378986496.0,10719232.0,90728448.0,93622272.0,199931904.0,107065344.0,154011648.0,39346176.0,37388288.0,207761408.0,198590464.0,4264493056.0,17.0,106.0,253.0
254,129013760.0,4281481216.0,4110979072.0,263979008.0,326375424.0,211865600.0,219475968.0,180008960.0,382509056.0,21157888.0,99373056.0,92301312.0,205606912.0,115656704.0,162019328.0,46505984.0,45289472.0,189577216.0,210542592.0,4276086784.0,17.0,106.0,254.0
255,131561472.0,4286926848.0,4116207616.0,267089920.0,330317824.0,212895744.0,225130496.0,184418304.0,372488192.0,25276416.0,101019648.0,72148992.0,199870464.0,117317632.0,163919872.0,45357056.0,47478784.0,153374720.0,216449024.0,4280481792.0,17.0,106.0,255.0
256,121886720.0,4274806784.0,4105029632.0,260333568.0,321943552.0,205213696.0,213286912.0,174557184.0,368986112.0,14852096.0,92379136.0,73506816.0,194226176.0,108718080.0,155918336.0,38205440.0,39583744.0,171567104.0,204503040.0,4268898304.0,17.0,106.0,256.0
257,119351296.0,4269359104.0,4099813376.0,257220608.0,317945856.0,204171264.0,207685632.0,170153984.0,378976256.0,10749952.0,90730496.0,93673472.0,199974912.0,107067392.0,154021888.0,39387136.0,37388288.0,207747072.0,198606848.0,4264505344.0,17.0,106.0,257.0
258,129048576.0,4281503744.0,4111017984.0,264034304.0,326336512.0,211851264.0,219613184.0,180051968.0,382496768.0,21196800.0,99387392.0,92313600.0,205651968.0,115673088.0,162068480.0,46563328.0,45299712.0,189601792.0,210587648.0,4276090880.0,17.0,106.0,258.0
259,131602432.0,4286980096.0,4116232192.0,267175936.0,330307584.0,212905984.0,225294336.0,184473600.0,372477952.0,25341952.0,101064704.0,72099840.0,199919616.0,117356544.0,163973120.0,45361152.0,47472640.0,153346048.0,216524800.0,4280524800.0,17.0,106.0,259.0
260,121923584.0,4274857984.0,4105048064.0,260399104.0,321916928.0,205234176.0,213438464.0,174606336.0,368977920.0,14934016.0,92434432.0,73467904.0,194273280.0,108769280.0,155957248.0,38209536.0,39591936.0,171556864.0,204578816.0,4268967936.0,17.0,106.0,260.0
261,119382016.0,4269385728.0,4099782656.0,257230848.0,317904896.0,204148736.0,207792128.0,170172416.0,378947584.0,10797056.0,90771456.0,93638656.0,199999488.0,107081728.0,154009600.0,39335936.0,37367808.0,207755264.0,198647808.0,4264546304.0,17.0,106.0,261.0
262,129062912.0,4281493504.0,4110962688.0,264011776.0,326283264.0,211816448.0,219678720.0,180035584.0,382494720.0,21215232.0,99424256.0,92305408.0,205690880.0,115671040.0,162058240.0,46546944.0,45264896.0,189609984.0,210601984.0,4276113408.0,17.0,106.0,262.0
263,131579904.0,4286898176.0,4116178944.0,267081728.0,330201088.0,212830208.0,225288192.0,184424448.0,372469760.0,25298944.0,101046272.0,72122368.0,199921664.0,117301248.0,163960832.0,45428736.0,47431680.0,153389056.0,216469504.0,4280485888.0,17.0,106.0,263.0
264,121882624.0,4274743296.0,4104953856.0,260321280.0,321769472.0,205109248.0,213399552.0,174551040.0,368941056.0,14852096.0,92370944.0,73443328.0,194222080.0,108673024.0,155897856.0,38238208.0,39507968.0,171575296.0,204490752.0,4268888064.0,17.0,106.0,264.0
265,119369728.0,4269307904.0,4099745792.0,257255424.0,317812736.0,204085248.0,207808512.0,170160128.0,378963968.0,10764288.0,90744832.0,93642752.0,199987200.0,107024384.0,153993216.0,39374848.0,37330944.0,207796224.0,198606848.0,4264505344.0,17.0,106.0,265.0
266,129079296.0,4281460736.0,4110991360.0,264065024.0,326209536.0,211777536.0,219731968.0,180047872.0,382500864.0,21204992.0,99399680.0,92332032.0,205670400.0,115650560.0,162039808.0,46557184.0,45254656.0,189665280.0,210569216.0,4276097024.0,17.0,106.0,266.0
267,131657728.0,4286967808.0,4116267008.0,267247616.0,330201088.0,212881408.0,225433600.0,184520704.0,372508672.0,25380864.0,101050368.0,72185856.0,199970816.0,117344256.0,164003840.0,45426688.0,47489024.0,153468928.0,216537088.0,4280567808.0,17.0,106.0,267.0
268,121972736.0,4274849792.0,4105062400.0,260489216.0,321832960.0,205205504.0,213585920.0,174684160.0,369012736.0,14964736.0,92407808.0,73512960.0,194328576.0,108750848.0,156002304.0,38217728.0,39571456.0,171657216.0,204599296.0,4269000704.0,17.0,106.0,268.0
269,119418880.0,4269395968.0,4099807232.0,257337344.0,317841408.0,204142592.0,207960064.0,170258432.0,379023360.0,10823680.0,90773504.0,93655040.0,200065024.0,107073536.0,154107904.0,39352320.0,37363712.0,207812608.0,198678528.0,4264581120.0,17.0,106.0,269.0
270,129128448.0,4281546752.0,4110997504.0,264134656.0,326238208.0,211845120.0,219885568.0,180160512.0,382570496.0,21260288.0,99434496.0,92344320.0,205748224.0,115689472.0,162172928.0,46561280.0,45299712.0,189693952.0,210653184.0,4276168704.0,17.0,106.0,270.0
271,131659776.0,4287004672.0,4116246528.0,267233280.0,330217472.0,212885504.0,225540096.0,184580096.0,372539392.0,25391104.0,101083136.0,72181760.0,200015872.0,117354496.0,164083712.0,45432832.0,47501312.0,153536512.0,216565760.0,4280594432.0,17.0,106.0,271.0
272,121915392.0,4274829312.0,4104982528.0,260425728.0,321792000.0,205139968.0,213637120.0,174639104.0,368984064.0,14915584.0,92395520.0,73476096.0,194318336.0,108713984.0,155992064.0,38176768.0,39530496.0,171653120.0,204554240.0,4268963840.0,17.0,106.0,272.0
273,119345152.0,4269328384.0,4099702784.0,257271808.0,317763584.0,204036096.0,207990784.0,170153984.0,378939392.0,10747904.0,90714112.0,93657088.0,200026112.0,107022336.0,154019840.0,39272448.0,37281792.0,207820800.0,198606848.0,4264513536.0,17.0,106.0,273.0
274,129052672.0,4281452544.0,4110878720.0,263995392.0,326131712.0,211716096.0,219885568.0,180008960.0,382468096.0,21174272.0,99362816.0,92379136.0,205688832.0,115621888.0,162029568.0,46487552.0,45170688.0,189706240.0,210542592.0,4276076544.0,17.0,106.0,274.0
275,131618816.0,4286926848.0,4116148224.0,267104256.0,330121216.0,212781056.0,225564672.0,184446976.0,372486144.0,25315328.0,101025792.0,72216576.0,199968768.0,117295104.0,163948544.0,45395968.0,47366144.0,153526272.0,216465408.0,4280514560.0,17.0,106.0,275.0
276,121896960.0,4274792448.0,4104953856.0,260315136.0,321693696.0,205076480.0,213688320.0,174559232.0,368949248.0,14880768.0,92360704.0,73531392.0,194285568.0,108685312.0,155904000.0,38168576.0,39432192.0,171667456.0,204509184.0,4268933120.0,17.0,106.0,276.0
277,119384064.0,4269383680.0,4099758080.0,257224704.0,317753344.0,204052480.0,208123904.0,170176512.0,378968064.0,10805248.0,90750976.0,93720576.0,200058880.0,107067392.0,154030080.0,39309312.0,37271552.0,207824896.0,198653952.0,4264564736.0,17.0,106.0,277.0
278,129077248.0,4281524224.0,4110987264.0,264028160.0,326154240.0,211752960.0,220037120.0,180049920.0,382498816.0,21243904.0,99411968.0,92383232.0,205742080.0,115671040.0,162072576.0,46528512.0,45191168.0,189696000.0,210610176.0,4276142080.0,17.0,106.0,278.0
279,131633152.0,4286990336.0,4116258816.0,267151360.0,330115072.0,212824064.0,225718272.0,184498176.0,372504576.0,25366528.0,101089280.0,72189952.0,200017920.0,117340160.0,164001792.0,45428736.0,47400960.0,153573376.0,216526848.0,4280559616.0,17.0,106.0,279.0
280,121958400.0,4274872320.0,4105054208.0,260395008.0,321734656.0,205137920.0,213868544.0,174630912.0,368994304.0,14923776.0,92428288.0,73498624.0,194353152.0,108740608.0,155973632.0,38207488.0,39493632.0,171739136.0,204584960.0,4268990464.0,17.0,106.0,280.0
281,119414784.0,4269404160.0,4099776512.0,257267712.0,317720576.0,204054528.0,208238592.0,170190848.0,378986496.0,10795008.0,90759168.0,93669376.0,200095744.0,107061248.0,154050560.0,39305216.0,37285888.0,207857664.0,198666240.0,4264570880.0,17.0,106.0,281.0
282,129093632.0,4281503744.0,4110950400.0,264040448.0,326086656.0,211718144.0,220108800.0,180056064.0,382519296.0,21215232.0,99407872.0,92381184.0,205760512.0,115642368.0,162074624.0,46510080.0,45189120.0,189755392.0,210599936.0,4276125696.0,17.0,106.0,282.0
283,131622912.0,4286939136.0,4116172800.0,267124736.0,330022912.0,212742144.0,225746944.0,184459264.0,372518912.0,25321472.0,101066752.0,72259584.0,200024064.0,117291008.0,163987456.0,45406208.0,47390720.0,153669632.0,216494080.0,4280524800.0,17.0,106.0,283.0
284,121909248.0,4274782208.0,4104929280.0,260319232.0,321613824.0,205008896.0,213854208.0,174565376.0,369016832.0,14868480.0,92399616.0,73596928.0,194351104.0,108658688.0,155928576.0,38174720.0,39477248.0,171806720.0,204509184.0,4268926976.0,17.0,106.0,284.0
285,119367680.0,4269340672.0,4099680256.0,257175552.0,317638656.0,203964416.0,208238592.0,170156032.0,379015168.0,10766336.0,90757120.0,93767680.0,200093696.0,107005952.0,154013696.0,39286784.0,37275648.0,207865856.0,198592512.0,4264517632.0,17.0,106.0,285.0
286,129077248.0,4281493504.0,4110915584.0,263983104.0,326039552.0,211691520.0,220160000.0,180070400.0,382574592.0,21221376.0,99424256.0,92448768.0,205803520.0,115646464.0,162095104.0,46489600.0,45211648.0,189773824.0,210561024.0,4276113408.0,17.0,106.0,286.0
287,131627008.0,4286955520.0,4116164608.0,267114496.0,330027008.0,212770816.0,225843200.0,184524800.0,372598784.0,25370624.0,101097472.0,72300544.0,200099840.0,117319680.0,164044800.0,45383680.0,47443968.0,153722880.0,216498176.0,4280555520.0,17.0,106.0,287.0
288,121931776.0,4274843648.0,4104970240.0,260345856.0,321644544.0,205086720.0,214003712.0,174665728.0,369084416.0,14936064.0,92452864.0,73619456.0,194422784.0,108726272.0,156004352.0,38172672.0,39559168.0,171882496.0,204562432.0,4268984320.0,17.0,106.0,288.0
289,119414784.0,4269422592.0,4099788800.0,257263616.0,317667328.0,204042240.0,208412672.0,170254336.0,379054080.0,10827776.0,90791936.0,93747200.0,200148992.0,107075584.0,154066944.0,39266304.0,37365760.0,207919104.0,198660096.0,4264591360.0,17.0,106.0,289.0
290,129114112.0,4281548800.0,4110997504.0,264083456.0,326043648.0,211726336.0,220317696.0,180111360.0,382564352.0,21266432.0,99448832.0,92440576.0,205834240.0,115671040.0,162101248.0,46503936.0,45264896.0,189843456.0,210612224.0,4276162560.0,17.0,106.0,290.0
291,131647488.0,4286973952.0,4116234240.0,267186176.0,329981952.0,212760576.0,225959936.0,184518656.0,372568064.0,25389056.0,101111808.0,72314880.0,200112128.0,117329920.0,164016128.0,45432832.0,47462400.0,153786368.0,216516608.0,4280561664.0,17.0,106.0,291.0
292,121931776.0,4274810880.0,4105000960.0,260345856.0,321564672.0,205033472.0,214061056.0,174602240.0,369037312.0,14931968.0,92428288.0,73654272.0,194412544.0,108693504.0,155938816.0,38215680.0,39528448.0,171925504.0,204531712.0,4268953600.0,17.0,106.0,292.0
293,119398400.0,4269342720.0,4099710976.0,257204224.0,317538304.0,203960320.0,208414720.0,170145792.0,378959872.0,10784768.0,90736640.0,93788160.0,200116224.0,106989568.0,153970688.0,39249920.0,37296128.0,207982592.0,198594560.0,4264523776.0,17.0,106.0,293.0
294,129087488.0,4281464832.0,4110905344.0,264013824.0,325904384.0,211640320.0,220305408.0,180000768.0,382472192.0,21211136.0,99393536.0,92485632.0,205780992.0,115560448.0,162017280.0,46460928.0,45182976.0,189863936.0,210532352.0,4276101120.0,17.0,106.0,294.0
295,131633152.0,4286926848.0,4116162560.0,267165696.0,329881600.0,212695040.0,225992704.0,184432640.0,372500480.0,25337856.0,101066752.0,72347648.0,200065024.0,117235712.0,163969024.0,45359104.0,47382528.0,153776128.0,216455168.0,4280524800.0,17.0,106.0,295.0
296,121933824.0,4274798592.0,4104916992.0,260384768.0,321497088.0,205012992.0,214134784.0,174567424.0,369018880.0,14913536.0,92407808.0,73664512.0,194392064.0,108646400.0,155928576.0,38105088.0,39497728.0,171911168.0,204505088.0,4268959744.0,17.0,106.0,296.0
297,119404544.0,4269348864.0,4099653632.0,257273856.0,317519872.0,203968512.0,208508928.0,170160128.0,379000832.0,10805248.0,90757120.0,93751296.0,200124416.0,106993664.0,153997312.0,39188480.0,37289984.0,207962112.0,198608896.0,4264552448.0,17.0,106.0,297.0
298,129138688.0,4281522176.0,4110897152.0,264122368.0,325924864.0,211685376.0,220452864.0,180088832.0,382552064.0,21282816.0,99457024.0,92454912.0,205842432.0,115619840.0,162088960.0,46473216.0,45203456.0,189888512.0,210599936.0,4276164608.0,17.0,106.0,298.0
299,131708928.0,4287006720.0,4116185088.0,267239424.0,329891840.0,212754432.0,226138112.0,184537088.0,372578304.0,25434112.0,101124096.0,72323072.0,200130560.0,117311488.0,164044800.0,45398016.0,47417344.0,153849856.0,216543232.0,4280604672.0,17.0,106.0,299.0
300,121997312.0,4274857984.0,4104992768.0,260419584.0,321492992.0,205060096.0,214265856.0,174628864.0,369051648.0,14972928.0,92438528.0,73617408.0,194451456.0,108697600.0,155969536.0,38152192.0,39475200.0,171972608.0,204587008.0,4269000704.0,17.0,106.0,300.0
301,119451648.0,4269400064.0,4099739648.0,257273856.0,317495296.0,203988992.0,208633856.0,170190848.0,379023360.0,10838016.0,90779648.0,93739008.0,200165376.0,107008000.0,154017792.0,39286784.0,37244928.0,207990784.0,198664192.0,4264591360.0,17.0,106.0,301.0
302,129157120.0,4281536512.0,4110936064.0,264085504.0,325883904.0,211687424.0,220547072.0,180070400.0,382562304.0,21274624.0,99446784.0,92434432.0,205850624.0,115615744.0,162050048.0,46524416.0,45142016.0,189906944.0,210616320.0,4276166656.0,17.0,106.0,302.0
303,131676160.0,4286951424.0,4116140032.0,267194368.0,329809920.0,212719616.0,226174976.0,184465408.0,372529152.0,25358336.0,101089280.0,72316928.0,200108032.0,117245952.0,163956736.0,45400064.0,47310848.0,153894912.0,216489984.0,4280553472.0,17.0,106.0,303.0
304,121944064.0,4274794496.0,4104896512.0,260386816.0,321396736.0,205006848.0,214292480.0,174548992.0,368992256.0,14891008.0,92407808.0,73654272.0,194408448.0,108599296.0,155885568.0,38152192.0,39368704.0,172017664.0,204500992.0,4268963840.0,17.0,106.0,304.0
305,119410688.0,4269361152.0,4099663872.0,257265664.0,317423616.0,203964416.0,208685056.0,170127360.0,378982400.0,10780672.0,90753024.0,93782016.0,200157184.0,106932224.0,153948160.0,39254016.0,37173248.0,208017408.0,198608896.0,4264562688.0,17.0,106.0,305.0
306,129112064.0,4281483264.0,4110860288.0,264073216.0,325808128.0,211683328.0,220592128.0,180021248.0,382527488.0,21202944.0,99414016.0,92465152.0,205856768.0,115556352.0,161984512.0,46458880.0,45070336.0,189923328.0,210563072.0,4276127744.0,17.0,106.0,306.0
307,131655680.0,4286945280.0,4116090880.0,267184128.0,329771008.0,212748288.0,226248704.0,184453120.0,372527104.0,25327616.0,101089280.0,72310784.0,200128512.0,117227520.0,163883008.0,45320192.0,47243264.0,153894912.0,216471552.0,4280524800.0,17.0,106.0,307.0
308,122015744.0,4274857984.0,4104916992.0,260382720.0,321431552.0,205074432.0,214394880.0,174577664.0,369000448.0,14927872.0,92434432.0,73576448.0,194453504.0,108648448.0,155852800.0,38129664.0,39340032.0,171984896.0,204541952.0,4268980224.0,17.0,106.0,308.0
309,119504896.0,4269434880.0,4099713024.0,257275904.0,317466624.0,204027904.0,208795648.0,170158080.0,378970112.0,10819584.0,90789888.0,93632512.0,200189952.0,106999808.0,153927680.0,39303168.0,37146624.0,207968256.0,198653952.0,4264595456.0,17.0,106.0,309.0
310,129191936.0,4281579520.0,4110923776.0,264075264.0,325838848.0,211720192.0,220702720.0,180037632.0,382502912.0,21256192.0,99444736.0,92307456.0,205881344.0,115603456.0,161949696.0,46477312.0,45082624.0,189902848.0,210606080.0,4276174848.0,17.0,106.0,310.0
311,131723264.0,4287019008.0,4116127744.0,267190272.0,329791488.0,212764672.0,226340864.0,184446976.0,372531200.0,25374720.0,101099520.0,72239104.0,200151040.0,117250048.0,163866624.0,45289472.0,47261696.0,153907200.0,216483840.0,4280567808.0,17.0,106.0,311.0
312,122023936.0,4274857984.0,4104884224.0,260370432.0,321394688.0,205039616.0,214452224.0,174546944.0,369016832.0,14917632.0,92438528.0,73576448.0,194480128.0,108619776.0,155811840.0,38045696.0,39307264.0,172027904.0,204503040.0,4268959744.0,17.0,106.0,312.0
313,119478272.0,4269381632.0,4099618816.0,257189888.0,317370368.0,203933696.0,208791552.0,170078208.0,378968064.0,10768384.0,90763264.0,93669376.0,200181760.0,106917888.0,153868288.0,39145472.0,37072896.0,207988736.0,198574080.0,4264531968.0,17.0,106.0,313.0
314,129155072.0,4281489408.0,4110790656.0,263983104.0,325724160.0,211613696.0,220667904.0,179937280.0,382498816.0,21159936.0,99407872.0,92356608.0,205846528.0,115505152.0,161880064.0,46362624.0,44951552.0,189915136.0,210501632.0,4276086784.0,17.0,106.0,314.0
315,131717120.0,4286967808.0,4116049920.0,267132928.0,329689088.0,212682752.0,226336768.0,184406016.0,372539392.0,25300992.0,101079040.0,72286208.0,200157184.0,117186560.0,163842048.0,45287424.0,47173632.0,153939968.0,216440832.0,4280535040.0,17.0,106.0,315.0
316,122019840.0,4274833408.0,4104873984.0,260333568.0,321316864.0,204978176.0,214466560.0,174536704.0,369020928.0,14876672.0,92436480.0,73611264.0,194494464.0,108595200.0,155813888.0,38078464.0,39272448.0,172089344.0,204498944.0,4268955648.0,17.0,106.0,316.0
317,119492608.0,4269398016.0,4099641344.0,257206272.0,317331456.0,203921408.0,208869376.0,170131456.0,378982400.0,10776576.0,90777600.0,93693952.0,200235008.0,106932224.0,153886720.0,39206912.0,37081088.0,208078848.0,198604800.0,4264550400.0,17.0,106.0,317.0
318,129202176.0,4281540608.0,4110856192.0,264028160.0,325724160.0,211630080.0,220780544.0,180035584.0,382521344.0,21215232.0,99452928.0,92352512.0,205916160.0,115556352.0,161939456.0,46436352.0,44996608.0,189999104.0,210565120.0,4276127744.0,17.0,106.0,318.0
319,131766272.0,4287008768.0,4116140032.0,267173888.0,329705472.0,212705280.0,226461696.0,184496128.0,372543488.0,25366528.0,101122048.0,72251392.0,200202240.0,117252096.0,163885056.0,45330432.0,47218688.0,154038272.0,216500224.0,4280578048.0,17.0,106.0,319.0
320,122068992.0,4274878464.0,4104919040.0,260388864.0,321320960.0,204980224.0,214577152.0,174585856.0,369008640.0,14929920.0,92454912.0,73574400.0,194533376.0,108640256.0,155844608.0,38121472.0,39297024.0,172140544.0,204539904.0,4269004800.0,17.0,106.0,320.0
321,119545856.0,4269436928.0,4099670016.0,257263616.0,317351936.0,203917312.0,208957440.0,170151936.0,378945536.0,10811392.0,90791936.0,93667328.0,200243200.0,106967040.0,153896960.0,39235584.0,37085184.0,208082944.0,198621184.0,4264581120.0,17.0,106.0,321.0
322,129206272.0,4281509888.0,4110823424.0,263995392.0,325683200.0,211572736.0,220807168.0,179990528.0,382447616.0,21182464.0,99418112.0,92329984.0,205877248.0,115533824.0,161886208.0,46422016.0,44949504.0,190009344.0,210518016.0,4276101120.0,17.0,106.0,322.0
323,131735552.0,4286935040.0,4116025344.0,267057152.0,329625600.0,212609024.0,226430976.0,184369152.0,372469760.0,25276416.0,101070848.0,72237056.0,200126464.0,117194752.0,163774464.0,45271040.0,47132672.0,154030080.0,216389632.0,4280498176.0,17.0,106.0,323.0
324,122036224.0,4274794496.0,4104804352.0,260247552.0,321239040.0,204908544.0,214556672.0,174465024.0,368936960.0,14817280.0,92387328.0,73566208.0,194443264.0,108570624.0,155709440.0,38025216.0,39202816.0,172109824.0,204408832.0,4268908544.0,17.0,106.0,324.0
325,119513088.0,4269375488.0,4099565568.0,257171456.0,317288448.0,203864064.0,208969728.0,170057728.0,378943488.0,10702848.0,90734592.0,93677568.0,200185856.0,106909696.0,153794560.0,39151616.0,36999168.0,208044032.0,198524928.0,4264517632.0,17.0,106.0,325.0
326,129204224.0,4281511936.0,4110776320.0,263995392.0,325652480.0,211578880.0,220882944.0,179959808.0,382521344.0,21151744.0,99399680.0,92375040.0,205867008.0,115527680.0,161839104.0,46379008.0,44896256.0,190025728.0,210485248.0,4276099072.0,17.0,106.0,326.0
327,131749888.0,4286988288.0,4116019200.0,267106304.0,329613312.0,212654080.0,226560000.0,184422400.0,372566016.0,25298944.0,101087232.0,72306688.0,200157184.0,117202944.0,163778560.0,45291520.0,47122432.0,154097664.0,216403968.0,4280522752.0,17.0,106.0,327.0
328,122034176.0,4274849792.0,4104771584.0,260311040.0,321230848.0,204937216.0,214685696.0,174542848.0,369008640.0,14852096.0,92395520.0,73553920.0,194459648.0,108589056.0,155678720.0,38017024.0,39188480.0,172122112.0,204425216.0,4268926976.0,17.0,106.0,328.0
329,119511040.0,4269418496.0,4099528704.0,257234944.0,317296640.0,203905024.0,209098752.0,170139648.0,378978304.0,10770432.0,90734592.0,93605888.0,200185856.0,106942464.0,153739264.0,39106560.0,36978688.0,208052224.0,198533120.0,4264529920.0,17.0,106.0,329.0
330,129234944.0,4281567232.0,4110749696.0,264040448.0,325689344.0,211642368.0,221034496.0,180051968.0,382535680.0,21215232.0,99414016.0,92352512.0,205885440.0,115552256.0,161794048.0,46342144.0,44888064.0,190021632.0,210503680.0,4276119552.0,17.0,106.0,330.0
331,131780608.0,4287019008.0,4116035584.0,267159552.0,329631744.0,212701184.0,226703360.0,184469504.0,372578304.0,25329664.0,101089280.0,72308736.0,200189952.0,117209088.0,163725312.0,45258752.0,47089664.0,154130432.0,216408064.0,4280532992.0,17.0,106.0,331.0
332,122052608.0,4274853888.0,4104828928.0,260362240.0,321218560.0,204969984.0,214804480.0,174532608.0,369049600.0,14874624.0,92403712.0,73601024.0,194508800.0,108572672.0,155629568.0,38025216.0,39153664.0,172226560.0,204429312.0,4268937216.0,17.0,106.0,332.0
333,119486464.0,4269381632.0,4099594240.0,257214464.0,317208576.0,203872256.0,209149952.0,170072064.0,378980352.0,10731520.0,90718208.0,93677568.0,200204288.0,106868736.0,153659392.0,39124992.0,36923392.0,208099328.0,198504448.0,4264509440.0,17.0,106.0,333.0
334,129187840.0,4281501696.0,4110821376.0,263995392.0,325558272.0,211546112.0,221038592.0,179939328.0,382517248.0,21147648.0,99377152.0,92436480.0,205889536.0,115466240.0,161683456.0,46360576.0,44816384.0,190083072.0,210440192.0,4276070400.0,17.0,106.0,334.0
335,131727360.0,4286971904.0,4116070400.0,267120640.0,329506816.0,212613120.0,226713600.0,184385536.0,372555776.0,25284608.0,101029888.0,72386560.0,200194048.0,117131264.0,163590144.0,45250560.0,47026176.0,154208256.0,216369152.0,4280494080.0,17.0,106.0,335.0
336,122044416.0,4274855936.0,4104861696.0,260339712.0,321126400.0,204922880.0,214870016.0,174520320.0,369049600.0,14864384.0,92370944.0,73664512.0,194531328.0,108529664.0,155545600.0,38014976.0,39120896.0,172269568.0,204439552.0,4268935168.0,17.0,106.0,336.0
337,119502848.0,4269412352.0,4099608576.0,257232896.0,317177856.0,203884544.0,209276928.0,170113024.0,379011072.0,10758144.0,90707968.0,93716480.0,200273920.0,106864640.0,153618432.0,39075840.0,36923392.0,208185344.0,198557696.0,4264531968.0,17.0,106.0,337.0
338,129234944.0,4281569280.0,4110852096.0,264067072.0,325607424.0,211623936.0,221212672.0,180039680.0,382580736.0,21202944.0,99409920.0,92444672.0,205991936.0,115511296.0,161712128.0,46297088.0,44855296.0,190189568.0,210548736.0,4276131840.0,17.0,106.0,338.0
339,131778560.0,4287033344.0,4116094976.0,267171840.0,329549824.0,212670464.0,226861056.0,184465408.0,372584448.0,25327616.0,101095424.0,72353792.0,200275968.0,117170176.0,163667968.0,45209600.0,47067136.0,154292224.0,216457216.0,4280547328.0,17.0,106.0,339.0
340,122077184.0,4274923520.0,4104882176.0,260372480.0,321183744.0,204990464.0,215011328.0,174614528.0,369074176.0,14923776.0,92465152.0,73670656.0,194615296.0,108580864.0,155631616.0,38029312.0,39174144.0,172376064.0,204527616.0,4268978176.0,17.0,106.0,340.0
341,119529472.0,4269481984.0,4099633152.0,257245184.0,317200384.0,203909120.0,209383424.0,170188800.0,379009024.0,10807296.0,90783744.0,93743104.0,200316928.0,106899456.0,153679872.0,39112704.0,36950016.0,208230400.0,198617088.0,4264558592.0,17.0,106.0,341.0
342,129216512.0,4281581568.0,4110761984.0,264028160.0,325541888.0,211578880.0,221249536.0,180033536.0,382525440.0,21204992.0,99414016.0,92452864.0,205983744.0,115468288.0,161697792.0,46290944.0,44816384.0,190203904.0,210532352.0,4276107264.0,17.0,106.0,342.0
343,131737600.0,4286998528.0,4115947520.0,267118592.0,329449472.0,212598784.0,226869248.0,184412160.0,372533248.0,25294848.0,101074944.0,72398848.0,200235008.0,117094400.0,163594240.0,45139968.0,46983168.0,154351616.0,216399872.0,4280494080.0,17.0,106.0,343.0
344,122058752.0,4274882560.0,4104771584.0,260323328.0,321052672.0,204892160.0,215005184.0,174522368.0,369000448.0,14860288.0,92416000.0,73705472.0,194551808.0,108476416.0,155527168.0,37941248.0,39053312.0,172392448.0,204447744.0,4268929024.0,17.0,106.0,344.0
345,119496704.0,4269420544.0,4099563520.0,257210368.0,317054976.0,203806720.0,209379328.0,170070016.0,378935296.0,10715136.0,90712064.0,93732864.0,200247296.0,106778624.0,153538560.0,39030784.0,36808704.0,208226304.0,198524928.0,4264501248.0,17.0,106.0,345.0
346,129179648.0,4281550848.0,4110800896.0,264028160.0,325439488.0,211515392.0,221288448.0,179939328.0,382484480.0,21137408.0,99362816.0,92446720.0,205932544.0,115390464.0,161574912.0,46233600.0,44689408.0,190201856.0,210470912.0,4276072448.0,17.0,106.0,346.0
347,131760128.0,4287043584.0,4116099072.0,267175936.0,329431040.0,212613120.0,226983936.0,184393728.0,372553728.0,25284608.0,101083136.0,72423424.0,200247296.0,117092352.0,163559424.0,45178880.0,46905344.0,154339328.0,216403968.0,4280514560.0,17.0,106.0,347.0
348,122071040.0,4274946048.0,4104910848.0,260395008.0,321058816.0,204935168.0,215144448.0,174544896.0,369029120.0,14882816.0,92438528.0,73687040.0,194582528.0,108507136.0,155504640.0,37967872.0,38995968.0,172374016.0,204478464.0,4268963840.0,17.0,106.0,348.0
349,119541760.0,4269524992.0,4099674112.0,257296384.0,317108224.0,203898880.0,209563648.0,170133504.0,378996736.0,10786816.0,90769408.0,93728768.0,200308736.0,106854400.0,153552896.0,39049216.0,36812800.0,208234496.0,198600704.0,4264585216.0,17.0,106.0,349.0
350,129253376.0,4281661440.0,4110899200.0,264120320.0,325517312.0,211609600.0,221485056.0,180019200.0,382552064.0,21229568.0,99444736.0,92456960.0,206018560.0,115462144.0,161624064.0,46297088.0,44763136.0,190234624.0,210561024.0,4276164608.0,17.0,106.0,350.0
351,131790848.0,4287090688.0,4116131840.0,267231232.0,329439232.0,212649984.0,227131392.0,184430592.0,372580352.0,25321472.0,101120000.0,72417280.0,200286208.0,117110784.0,163586048.0,45209600.0,46954496.0,154355712.0,216444928.0,4280545280.0,17.0,106.0,351.0
352,122099712.0,4274954240.0,4104914944.0,260450304.0,321019904.0,204929024.0,215267328.0,174551040.0,369059840.0,14870528.0,92428288.0,73709568.0,194598912.0,108478464.0,155531264.0,37955584.0,39026688.0,172386304.0,204484608.0,4268957696.0,17.0,106.0,352.0
353,119547904.0,4269496320.0,4099667968.0,257320960.0,317026304.0,203837440.0,209637376.0,170115072.0,378996736.0,10721280.0,90732544.0,93757440.0,200306688.0,106805248.0,153538560.0,39049216.0,36798464.0,208228352.0,198565888.0,4264521728.0,17.0,106.0,353.0
354,129226752.0,4281591808.0,4110837760.0,264077312.0,325429248.0,211515392.0,221503488.0,179974144.0,382490624.0,21121024.0,99389440.0,92520448.0,205967360.0,115390464.0,161560576.0,46268416.0,44689408.0,190210048.0,210493440.0,4276078592.0,17.0,106.0,354.0
355,131760128.0,4287037440.0,4116056064.0,267208704.0,329383936.0,212570112.0,227164160.0,184389632.0,372516864.0,25249792.0,101064704.0,72476672.0,200261632.0,117061632.0,163510272.0,45166592.0,46878720.0,154355712.0,216401920.0,4280494080.0,17.0,106.0,355.0
356,122068992.0,4274931712.0,4104908800.0,260413440.0,320997376.0,204883968.0,215328768.0,174516224.0,368988160.0,14848000.0,92411904.0,73752576.0,194598912.0,108466176.0,155451392.0,37933056.0,38989824.0,172392448.0,204478464.0,4268941312.0,17.0,106.0,356.0
357,119535616.0,4269518848.0,4099719168.0,257310720.0,317028352.0,203839488.0,209754112.0,170121216.0,378947584.0,10774528.0,90757120.0,93784064.0,200341504.0,106809344.0,153511936.0,39043072.0,36798464.0,208224256.0,198619136.0,4264564736.0,17.0,106.0,357.0
358,129234944.0,4281673728.0,4110954496.0,264142848.0,325425152.0,211542016.0,221677568.0,180013056.0,382513152.0,21225472.0,99430400.0,92485632.0,206039040.0,115417088.0,161566720.0,46288896.0,44722176.0,190226432.0,210589696.0,4276156416.0,17.0,106.0,358.0
359,131790848.0,4287145984.0,4116170752.0,267292672.0,329394176.0,212621312.0,227352576.0,184475648.0,372570112.0,25378816.0,101140480.0,72427520.0,200359936.0,117129216.0,163545088.0,45254656.0,46936064.0,154382336.0,216524800.0,4280584192.0,17.0,106.0,359.0
360,122087424.0,4275021824.0,4104962048.0,260540416.0,321009664.0,204931072.0,215500800.0,174614528.0,369068032.0,14944256.0,92497920.0,73707520.0,194693120.0,108533760.0,155521024.0,38035456.0,39008256.0,172433408.0,204595200.0,4269008896.0,17.0,106.0,360.0
361,119539712.0,4269553664.0,4099760128.0,257425408.0,317007872.0,203851776.0,209870848.0,170166272.0,378996736.0,10805248.0,90798080.0,93734912.0,200398848.0,106827776.0,153536512.0,39084032.0,36784128.0,208238592.0,198682624.0,4264597504.0,17.0,106.0,361.0
362,129198080.0,4281624576.0,4110907392.0,264183808.0,325343232.0,211494912.0,221722624.0,179974144.0,382476288.0,21172224.0,99393536.0,92430336.0,206036992.0,115378176.0,161519616.0,46194688.0,44648448.0,190218240.0,210579456.0,4276127744.0,17.0,106.0,362.0
363,131737600.0,4287051776.0,4116113408.0,267272192.0,329273344.0,212539392.0,227356672.0,184401920.0,372520960.0,25280512.0,101066752.0,72423424.0,200323072.0,117041152.0,163477504.0,45105152.0,46841856.0,154472448.0,216471552.0,4280526848.0,17.0,106.0,363.0
364,122054656.0,4274933760.0,4104912896.0,260448256.0,320864256.0,204834816.0,215494656.0,174538752.0,369020928.0,14870528.0,92422144.0,73730048.0,194662400.0,108427264.0,155437056.0,37924864.0,38946816.0,172527616.0,204529664.0,4268967936.0,17.0,106.0,364.0
365,119519232.0,4269486080.0,4099645440.0,257312768.0,316862464.0,203759616.0,209874944.0,170102784.0,378939392.0,10752000.0,90740736.0,93745152.0,200372224.0,106743808.0,153475072.0,39069696.0,36726784.0,208271360.0,198612992.0,4264542208.0,17.0,106.0,365.0
366,129230848.0,4281620480.0,4110850048.0,264132608.0,325255168.0,211466240.0,221790208.0,179992576.0,382515200.0,21188608.0,99403776.0,92483584.0,206071808.0,115369984.0,161536000.0,46313472.0,44632064.0,190304256.0,210556928.0,4276113408.0,17.0,106.0,366.0
367,131805184.0,4287094784.0,4116144128.0,267292672.0,329230336.0,212539392.0,227469312.0,184434688.0,372586496.0,25339904.0,101056512.0,72448000.0,200376320.0,117053440.0,163475456.0,45088768.0,46850048.0,154515456.0,216483840.0,4280547328.0,17.0,106.0,367.0
368,122146816.0,4274991104.0,4104978432.0,260517888.0,320854016.0,204843008.0,215627776.0,174579712.0,369059840.0,14919680.0,92395520.0,73707520.0,194693120.0,108466176.0,155457536.0,37873664.0,38944768.0,172498944.0,204554240.0,4268984320.0,17.0,106.0,368.0
369,119611392.0,4269559808.0,4099727360.0,257400832.0,316891136.0,203786240.0,210026496.0,170176512.0,378984448.0,10797056.0,90742784.0,93747200.0,200402944.0,106786816.0,153536512.0,39030784.0,36730880.0,208218112.0,198653952.0,4264583168.0,17.0,106.0,369.0
370,129288192.0,4281665536.0,4110909440.0,264187904.0,325283840.0,211480576.0,221906944.0,180035584.0,382521344.0,21186560.0,99403776.0,92465152.0,206067712.0,115369984.0,161595392.0,46268416.0,44632064.0,190216192.0,210569216.0,4276121600.0,17.0,106.0,370.0
371,131825664.0,4287094784.0,4116133888.0,267284480.0,329244672.0,212527104.0,227536896.0,184438784.0,372549632.0,25284608.0,101072896.0,72433664.0,200335360.0,117039104.0,163530752.0,45146112.0,46813184.0,154425344.0,216444928.0,4280498176.0,17.0,106.0,371.0
372,122132480.0,4274978816.0,4104951808.0,260495360.0,320843776.0,204818432.0,215678976.0,174538752.0,369004544.0,14837760.0,92391424.0,73728000.0,194637824.0,108443648.0,155439104.0,37871616.0,38899712.0,172402688.0,204490752.0,4268924928.0,17.0,106.0,372.0
373,119588864.0,4269531136.0,4099723264.0,257372160.0,316868608.0,203749376.0,210057216.0,170100736.0,378918912.0,10706944.0,90712064.0,93798400.0,200341504.0,106758144.0,153466880.0,38975488.0,36702208.0,208207872.0,198572032.0,4264515584.0,17.0,106.0,373.0
374,129247232.0,4281602048.0,4110874624.0,264116224.0,325251072.0,211429376.0,221917184.0,179953664.0,382453760.0,21094400.0,99334144.0,92561408.0,206008320.0,115300352.0,161478656.0,46180352.0,44578816.0,190255104.0,210466816.0,4276033536.0,17.0,106.0,374.0
375,131776512.0,4287029248.0,4116060160.0,267192320.0,329218048.0,212449280.0,227559424.0,184340480.0,372492288.0,25200640.0,100976640.0,72542208.0,200275968.0,116953088.0,163401728.0,45053952.0,46743552.0,154492928.0,216352768.0,4280424448.0,17.0,106.0,375.0
376,122091520.0,4274929664.0,4104882176.0,260415488.0,320815104.0,204744704.0,215719936.0,174465024.0,368967680.0,14786560.0,92317696.0,73822208.0,194600960.0,108363776.0,155351040.0,37824512.0,38828032.0,172523520.0,204419072.0,4268853248.0,17.0,106.0,376.0
377,119590912.0,4269555712.0,4099723264.0,257351680.0,316884992.0,203753472.0,210173952.0,170117120.0,378955776.0,10739712.0,90687488.0,93888512.0,200357888.0,106735616.0,153458688.0,38981632.0,36700160.0,208297984.0,198590464.0,4264521728.0,17.0,106.0,377.0
378,129308672.0,4281710592.0,4110956544.0,264206336.0,325312512.0,211499008.0,222093312.0,180039680.0,382531584.0,21186560.0,99379200.0,92631040.0,206063616.0,115365888.0,161542144.0,46213120.0,44650496.0,190355456.0,210577408.0,4276115456.0,17.0,106.0,378.0
379,131835904.0,4287145984.0,4116154368.0,267309056.0,329279488.0,212555776.0,227758080.0,184455168.0,372578304.0,25296896.0,101056512.0,72599552.0,200355840.0,117024768.0,163497984.0,45113344.0,46852096.0,154603520.0,216471552.0,4280508416.0,17.0,106.0,379.0
380,122148864.0,4275050496.0,4104972288.0,260532224.0,320878592.0,204869632.0,215924736.0,174592000.0,369065984.0,14901248.0,92422144.0,73885696.0,194699264.0,108437504.0,155473920.0,37922816.0,38975488.0,172621824.0,204550144.0,4268972032.0,17.0,106.0,380.0
381,119597056.0,4269606912.0,4099770368.0,257425408.0,316874752.0,203786240.0,210300928.0,170153984.0,378992640.0,10778624.0,90744832.0,93896704.0,200409088.0,106754048.0,153516032.0,38993920.0,36751360.0,208355328.0,198643712.0,4264568832.0,17.0,106.0,381.0
382,129259520.0,4281692160.0,4110923776.0,264232960.0,325230592.0,211460096.0,222164992.0,180002816.0,382511104.0,21174272.0,99371008.0,92643328.0,206080000.0,115337216.0,161511424.0,46149632.0,44621824.0,190380032.0,210546688.0,4276097024.0,17.0,106.0,382.0
383,131768320.0,4287090688.0,4116080640.0,267313152.0,329170944.0,212471808.0,227778560.0,184381440.0,372533248.0,25255936.0,101021696.0,72636416.0,200345600.0,116965376.0,163426304.0,45049856.0,46804992.0,154658816.0,216408064.0,4280457216.0,17.0,106.0,383.0
384,122073088.0,4274962432.0,4104880128.0,260513792.0,320770048.0,204750848.0,215918592.0,174508032.0,369020928.0,14815232.0,92366848.0,73922560.0,194674688.0,108349440.0,155377664.0,37828608.0,38895616.0,172713984.0,204466176.0,4268886016.0,17.0,106.0,384.0
385,119552000.0,4269543424.0,4099700736.0,257437696.0,316811264.0,203704320.0,210333696.0,170106880.0,378959872.0,10719232.0,90720256.0,93956096.0,200394752.0,106702848.0,153421824.0,38930432.0,36696064.0,208431104.0,198590464.0,4264499200.0,17.0,106.0,385.0
386,129253376.0,4281663488.0,4110876672.0,264271872.0,325220352.0,211419136.0,222224384.0,179984384.0,382521344.0,21151744.0,99381248.0,92708864.0,206075904.0,115316736.0,161460224.0,46149632.0,44564480.0,190480384.0,210530304.0,4276066304.0,17.0,106.0,386.0
387,131803136.0,4287115264.0,4116103168.0,267403264.0,329203712.0,212504576.0,227893248.0,184438784.0,372594688.0,25272320.0,101062656.0,72734720.0,200396800.0,117004288.0,163432448.0,45064192.0,46761984.0,154763264.0,216436736.0,4280475648.0,17.0,106.0,387.0
388,122175488.0,4275060736.0,4104953856.0,260683776.0,320860160.0,204855296.0,216100864.0,174618624.0,369123328.0,14897152.0,92438528.0,74033152.0,194791424.0,108443648.0,155420672.0,37865472.0,38879232.0,172720128.0,204570624.0,4268967936.0,17.0,106.0,388.0
389,119664640.0,4269658112.0,4099719168.0,257607680.0,316903424.0,203802624.0,210532352.0,170231808.0,379054080.0,10815488.0,90785792.0,94015488.0,200515584.0,106792960.0,153470976.0,38981632.0,36675584.0,208388096.0,198715392.0,4264607744.0,17.0,106.0,389.0
390,129316864.0,4281733120.0,4110854144.0,264378368.0,325261312.0,211447808.0,222384128.0,180070400.0,382564352.0,21194752.0,99414016.0,92747776.0,206170112.0,115363840.0,161468416.0,46198784.0,44554240.0,190447616.0,210610176.0,4276140032.0,17.0,106.0,390.0
391,131837952.0,4287143936.0,4116025344.0,267444224.0,329197568.0,212488192.0,227997696.0,184459264.0,372600832.0,25278464.0,101074944.0,72744960.0,200431616.0,117000192.0,163377152.0,45080576.0,46731264.0,154742784.0,216469504.0,4280498176.0,17.0,106.0,391.0
392,122150912.0,4275017728.0,4104806400.0,260646912.0,320790528.0,204785664.0,216143872.0,174567424.0,369072128.0,14843904.0,92416000.0,74029056.0,194748416.0,108376064.0,155322368.0,37838848.0,38791168.0,172752896.0,204509184.0,4268920832.0,17.0,106.0,392.0
393,119605248.0,4269580288.0,4099569664.0,257509376.0,316798976.0,203702272.0,210520064.0,170119168.0,378957824.0,10719232.0,90718208.0,94035968.0,200435712.0,106690560.0,153337856.0,38868992.0,36562944.0,208392192.0,198604800.0,4264523776.0,17.0,106.0,393.0
394,129271808.0,4281683968.0,4110751744.0,264321024.0,325195776.0,211386368.0,222402560.0,179982336.0,382490624.0,21110784.0,99356672.0,92776448.0,206104576.0,115275776.0,161378304.0,46065664.0,44457984.0,190423040.0,210528256.0,4276070400.0,17.0,106.0,394.0
395,131823616.0,4287121408.0,4116041728.0,267429888.0,329160704.0,212447232.0,228048896.0,184410112.0,372570112.0,25225216.0,101042176.0,72828928.0,200423424.0,116938752.0,163336192.0,45033472.0,46680064.0,154789888.0,216412160.0,4280459264.0,17.0,106.0,395.0
396,122114048.0,4275021824.0,4104910848.0,260651008.0,320761856.0,204752896.0,216209408.0,174544896.0,369059840.0,14813184.0,92399616.0,74110976.0,194748416.0,108343296.0,155295744.0,37885952.0,38772736.0,172785664.0,204492800.0,4268894208.0,17.0,106.0,396.0
397,119586816.0,4269645824.0,4099749888.0,257591296.0,316837888.0,203745280.0,210657280.0,170153984.0,378996736.0,10752000.0,90759168.0,94089216.0,200476672.0,106696704.0,153370624.0,38979584.0,36581376.0,208429056.0,198653952.0,4264548352.0,17.0,106.0,397.0
398,129265664.0,4281759744.0,4110874624.0,264396800.0,325253120.0,211445760.0,222543872.0,180019200.0,382531584.0,21149696.0,99375104.0,92760064.0,206137344.0,115290112.0,161386496.0,46006272.0,44457984.0,190472192.0,210583552.0,4276105216.0,17.0,106.0,398.0
399,131807232.0,4287207424.0,4116099072.0,267505664.0,329220096.0,212518912.0,228194304.0,184444928.0,372611072.0,25264128.0,101052416.0,72794112.0,200435712.0,116967424.0,163325952.0,44896256.0,46643200.0,154830848.0,216481792.0,4280516608.0,17.0,106.0,399.0
400,122132480.0,4275120128.0,4104978432.0,260708352.0,320845824.0,204830720.0,216369152.0,174600192.0,369104896.0,14866432.0,92405760.0,74086400.0,194789376.0,108369920.0,155303936.0,37699584.0,38729728.0,172793856.0,204580864.0,4268974080.0,17.0,106.0,400.0
401,119595008.0,4269697024.0,4099768320.0,257552384.0,316868608.0,203751424.0,210763776.0,170166272.0,379009024.0,10762240.0,90726400.0,94085120.0,200488960.0,106672128.0,153331712.0,38840320.0,36505600.0,208408576.0,198682624.0,4264560640.0,17.0,106.0,401.0
402,129251328.0,4281780224.0,4110882816.0,264329216.0,325261312.0,211421184.0,222627840.0,180008960.0,382529536.0,21129216.0,99360768.0,92852224.0,206161920.0,115247104.0,161353728.0,46065664.0,44351488.0,190476288.0,210581504.0,4276080640.0,17.0,106.0,402.0
403,131794944.0,4287213568.0,4116066304.0,267456512.0,329197568.0,212467712.0,228263936.0,184403968.0,372600832.0,25223168.0,101031936.0,72916992.0,200462336.0,116905984.0,163323904.0,44961792.0,46538752.0,154853376.0,216459264.0,4280481792.0,17.0,106.0,403.0
404,122120192.0,4275111936.0,4104882176.0,260685824.0,320784384.0,204769280.0,216426496.0,174522368.0,369108992.0,14813184.0,92393472.0,74227712.0,194807808.0,108312576.0,155283456.0,37750784.0,38635520.0,172851200.0,204535808.0,4268939264.0,17.0,106.0,404.0
405,119574528.0,4269686784.0,4099688448.0,257581056.0,316794880.0,203702272.0,210823168.0,170102784.0,379023360.0,10708992.0,90716160.0,94189568.0,200495104.0,106643456.0,153325568.0,38858752.0,36429824.0,208443392.0,198639616.0,4264536064.0,17.0,106.0,405.0
406,129239040.0,4281792512.0,4110850048.0,264392704.0,325203968.0,211388416.0,222705664.0,179961856.0,382533632.0,21118976.0,99358720.0,92917760.0,206155776.0,115243008.0,161359872.0,46063616.0,44318720.0,190486528.0,210571264.0,4276084736.0,17.0,106.0,406.0
407,131762176.0,4287223808.0,4116066304.0,267522048.0,329154560.0,212449280.0,228356096.0,184391680.0,372600832.0,25229312.0,101019648.0,72945664.0,200466432.0,116910080.0,163311616.0,44974080.0,46520320.0,154865664.0,216467456.0,4280489984.0,17.0,106.0,407.0
408,122091520.0,4275122176.0,4104857600.0,260737024.0,320761856.0,204746752.0,216524800.0,174553088.0,369100800.0,14829568.0,92364800.0,74196992.0,194811904.0,108331008.0,155273216.0,37746688.0,38606848.0,172826624.0,204558336.0,4268945408.0,17.0,106.0,408.0
409,119588864.0,4269721600.0,4099661824.0,257634304.0,316796928.0,203698176.0,210946048.0,170168320.0,379025408.0,10729472.0,90716160.0,94146560.0,200521728.0,106680320.0,153339904.0,38856704.0,36401152.0,208427008.0,198699008.0,4264558592.0,17.0,106.0,409.0
410,129275904.0,4281841664.0,4110856192.0,264448000.0,325208064.0,211388416.0,222834688.0,180047872.0,382545920.0,21161984.0,99389440.0,92901376.0,206202880.0,115281920.0,161386496.0,46123008.0,44308480.0,190500864.0,210630656.0,4276123648.0,17.0,106.0,410.0
411,131790848.0,4287260672.0,4116074496.0,267538432.0,329156608.0,212414464.0,228462592.0,184444928.0,372594688.0,25264128.0,101046272.0,72935424.0,200503296.0,116932608.0,163305472.0,45033472.0,46493696.0,154869760.0,216508416.0,4280492032.0,17.0,106.0,411.0
412,122103808.0,4275124224.0,4104867840.0,260718592.0,320720896.0,204677120.0,216594432.0,174542848.0,369055744.0,14819328.0,92362752.0,74186752.0,194813952.0,108312576.0,155217920.0,37761024.0,38555648.0,172867584.0,204544000.0,4268912640.0,17.0,106.0,412.0
413,119586816.0,4269678592.0,4099641344.0,257597440.0,316708864.0,203595776.0,210989056.0,170108928.0,378978304.0,10706944.0,90671104.0,94158848.0,200497152.0,106631168.0,153243648.0,38817792.0,36327424.0,208459776.0,198641664.0,4264521728.0,17.0,106.0,413.0
414,129271808.0,4281774080.0,4110809088.0,264376320.0,325103616.0,211279872.0,222849024.0,179961856.0,382515200.0,21104640.0,99325952.0,92903424.0,206166016.0,115204096.0,161275904.0,46030848.0,44191744.0,190535680.0,210548736.0,4276043776.0,17.0,106.0,414.0
415,131805184.0,4287197184.0,4116011008.0,267436032.0,329039872.0,212334592.0,228491264.0,184365056.0,372570112.0,25190400.0,101003264.0,72951808.0,200450048.0,116867072.0,163229696.0,44931072.0,46370816.0,154898432.0,216424448.0,4280434688.0,17.0,106.0,415.0
416,122126336.0,4275091456.0,4104816640.0,260624384.0,320606208.0,204644352.0,216639488.0,174497792.0,369041408.0,14776320.0,92336128.0,74184704.0,194777088.0,108269568.0,155191296.0,37699584.0,38467584.0,172873728.0,204486656.0,4268877824.0,17.0,106.0,416.0
417,119631872.0,4269703168.0,4099616768.0,257576960.0,316676096.0,203622400.0,211087360.0,170110976.0,378992640.0,10715136.0,90687488.0,94142464.0,200511488.0,106637312.0,153284608.0,38801408.0,36282368.0,208451584.0,198653952.0,4264519680.0,17.0,106.0,417.0
418,129347584.0,4281843712.0,4110829568.0,264421376.0,325117952.0,211345408.0,223021056.0,180017152.0,382537728.0,21143552.0,99366912.0,92889088.0,206206976.0,115253248.0,161384448.0,46043136.0,44177408.0,190517248.0,210612224.0,4276097024.0,17.0,106.0,418.0
419,131860480.0,4287262720.0,4116049920.0,267505664.0,329060352.0,212396032.0,228655104.0,184424448.0,372574208.0,25237504.0,101023744.0,72927232.0,200480768.0,116905984.0,163346432.0,44969984.0,46329856.0,154902528.0,216479744.0,4280479744.0,17.0,106.0,419.0
420,122183680.0,4275169280.0,4104876032.0,260732928.0,320661504.0,204709888.0,216834048.0,174577664.0,369061888.0,14845952.0,92377088.0,74203136.0,194834432.0,108320768.0,155314176.0,37771264.0,38428672.0,172853248.0,204566528.0,4268931072.0,17.0,106.0,420.0
421,119635968.0,4269744128.0,4099641344.0,257624064.0,316669952.0,203620352.0,211218432.0,170151936.0,378961920.0,10729472.0,90707968.0,94136320.0,200534016.0,106641408.0,153311232.0,38838272.0,36225024.0,208427008.0,198660096.0,4264534016.0,17.0,106.0,421.0
422,129310720.0,4281829376.0,4110778368.0,264400896.0,325068800.0,211275776.0,223080448.0,179984384.0,382498816.0,21106688.0,99336192.0,92887040.0,206184448.0,115210240.0,161310720.0,46008320.0,44113920.0,190511104.0,210563072.0,4276066304.0,17.0,106.0,422.0
423,131844096.0,4287248384.0,4115972096.0,267470848.0,329009152.0,212320256.0,228710400.0,184383488.0,372561920.0,25190400.0,100993024.0,72962048.0,200480768.0,116867072.0,163250176.0,44908544.0,46299136.0,154978304.0,216432640.0,4280440832.0,17.0,106.0,423.0
424,122155008.0,4275138560.0,4104808448.0,260679680.0,320589824.0,204634112.0,216868864.0,174516224.0,369025024.0,14778368.0,92332032.0,74221568.0,194811904.0,108257280.0,155193344.0,37660672.0,38373376.0,172939264.0,204496896.0,4268881920.0,17.0,106.0,424.0
425,119607296.0,4269713408.0,4099575808.0,257579008.0,316616704.0,203567104.0,211265536.0,170090496.0,378927104.0,10670080.0,90671104.0,94167040.0,200509440.0,106575872.0,153223168.0,38766592.0,36155392.0,208453632.0,198610944.0,4264488960.0,17.0,106.0,425.0
426,129273856.0,4281829376.0,4110706688.0,264388608.0,325033984.0,211269632.0,223156224.0,179949568.0,382476288.0,21073920.0,99323904.0,92915712.0,206178304.0,115163136.0,161259520.0,46012416.0,44044288.0,190490624.0,210542592.0,4276035584.0,17.0,106.0,426.0
427,131840000.0,4287301632.0,4115945472.0,267522048.0,329035776.0,212365312.0,228837376.0,184389632.0,372570112.0,25208832.0,101031936.0,72980480.0,200497152.0,116860928.0,163233792.0,44931072.0,46249984.0,154933248.0,216461312.0,4280457216.0,17.0,106.0,427.0
428,122163200.0,4275218432.0,4104812544.0,260761600.0,320651264.0,204683264.0,217020416.0,174538752.0,369063936.0,14807040.0,92377088.0,74201088.0,194834432.0,108285952.0,155205632.0,37689344.0,38326272.0,172873728.0,204554240.0,4268918784.0,17.0,106.0,428.0
429,119623680.0,4269791232.0,4099606528.0,257658880.0,316680192.0,203638784.0,211433472.0,170147840.0,378974208.0,10708992.0,90714112.0,94093312.0,200540160.0,106622976.0,153241600.0,38778880.0,36110336.0,208394240.0,198678528.0,4264529920.0,17.0,106.0,429.0
430,129316864.0,4281899008.0,4110770176.0,264472576.0,325083136.0,211343360.0,223315968.0,180025344.0,382517248.0,21112832.0,99375104.0,92846080.0,206213120.0,115208192.0,161286144.0,45989888.0,44019712.0,190521344.0,210601984.0,4276074496.0,17.0,106.0,430.0
431,131835904.0,4287326208.0,4116011008.0,267556864.0,329029632.0,212375552.0,228943872.0,184426496.0,372584448.0,25196544.0,101019648.0,72914944.0,200501248.0,116848640.0,163241984.0,44838912.0,46209024.0,154998784.0,216469504.0,4280449024.0,17.0,106.0,431.0
432,122122240.0,4275187712.0,4104851456.0,260708352.0,320585728.0,204640256.0,217073664.0,174524416.0,369039360.0,14759936.0,92354560.0,74174464.0,194820096.0,108230656.0,155164672.0,37636096.0,38268928.0,172922880.0,204525568.0,4268892160.0,17.0,106.0,432.0
433,119576576.0,4269729792.0,4099618816.0,257574912.0,316559360.0,203556864.0,211462144.0,170078208.0,378945536.0,10651648.0,90691584.0,94097408.0,200515584.0,106547200.0,153153536.0,38764544.0,36048896.0,208472064.0,198629376.0,4264486912.0,17.0,106.0,433.0
434,129239040.0,4281804800.0,4110817280.0,264380416.0,324935680.0,211232768.0,223305728.0,179922944.0,382482432.0,21035008.0,99323904.0,92866560.0,206184448.0,115120128.0,161146880.0,45959168.0,43917312.0,190623744.0,210532352.0,4275992576.0,17.0,106.0,434.0
435,131776512.0,4287242240.0,4116074496.0,267513856.0,328910848.0,212299776.0,228952064.0,184346624.0,372559872.0,25133056.0,100993024.0,72966144.0,200480768.0,116799488.0,163090432.0,44820480.0,46110720.0,155109376.0,216424448.0,4280397824.0,17.0,106.0,435.0
436,122093568.0,4275144704.0,4104921088.0,260751360.0,320479232.0,204589056.0,217110528.0,174508032.0,369045504.0,14751744.0,92381184.0,74223616.0,194828288.0,108230656.0,155068416.0,37648384.0,38201344.0,173019136.0,204509184.0,4268869632.0,17.0,106.0,436.0
437,119547904.0,4269727744.0,4099710976.0,257675264.0,316485632.0,203526144.0,211525632.0,170102784.0,378955776.0,10678272.0,90707968.0,94121984.0,200550400.0,106555392.0,153141248.0,38729728.0,36001792.0,208502784.0,198653952.0,4264499200.0,17.0,106.0,437.0
438,129232896.0,4281839616.0,4110888960.0,264497152.0,324882432.0,211228672.0,223422464.0,179970048.0,382482432.0,21102592.0,99330048.0,92856320.0,206237696.0,115150848.0,161193984.0,45893632.0,43902976.0,190613504.0,210606080.0,4276054016.0,17.0,106.0,438.0
439,131770368.0,4287283200.0,4116127744.0,267612160.0,328849408.0,212303872.0,229079040.0,184403968.0,372574208.0,25229312.0,101017600.0,72964096.0,200556544.0,116844544.0,163184640.0,44800000.0,46120960.0,155154432.0,216516608.0,4280465408.0,17.0,106.0,439.0
440,122093568.0,4275193856.0,4104939520.0,260841472.0,320440320.0,204603392.0,217243648.0,174551040.0,369037312.0,14856192.0,92395520.0,74225664.0,194910208.0,108261376.0,155150336.0,37627904.0,38240256.0,173090816.0,204601344.0,4268929024.0,17.0,106.0,440.0
441,119558144.0,4269754368.0,4099713024.0,257732608.0,316426240.0,203513856.0,211605504.0,170104832.0,378927104.0,10752000.0,90712064.0,94130176.0,200595456.0,106563584.0,153161728.0,38715392.0,36040704.0,208572416.0,198707200.0,4264529920.0,17.0,106.0,441.0
442,129216512.0,4281815040.0,4110837760.0,264521728.0,324812800.0,211185664.0,223438848.0,179937280.0,382451712.0,21123072.0,99336192.0,92919808.0,206239744.0,115113984.0,161157120.0,45907968.0,43913216.0,190709760.0,210595840.0,4276037632.0,17.0,106.0,442.0
443,131753984.0,4287248384.0,4116025344.0,267630592.0,328779776.0,212244480.0,229072896.0,184367104.0,372537344.0,25208832.0,101011456.0,73041920.0,200548352.0,116779008.0,163096576.0,44816384.0,46096384.0,155285504.0,216473600.0,4280412160.0,17.0,106.0,443.0
444,122052608.0,4275144704.0,4104839168.0,260820992.0,320346112.0,204519424.0,217208832.0,174483456.0,369010688.0,14772224.0,92336128.0,74303488.0,194859008.0,108167168.0,155031552.0,37566464.0,38168576.0,173205504.0,204519424.0,4268851200.0,17.0,106.0,444.0
445,119525376.0,4269742080.0,4099633152.0,257724416.0,316362752.0,203444224.0,211621888.0,170065920.0,378910720.0,10659840.0,90652672.0,94230528.0,200540160.0,106479616.0,153051136.0,38629376.0,35950592.0,208644096.0,198643712.0,4264474624.0,17.0,106.0,445.0
446,129222656.0,4281872384.0,4110825472.0,264550400.0,324800512.0,211171328.0,223526912.0,179963904.0,382476288.0,21078016.0,99332096.0,93057024.0,206223360.0,115101696.0,161120256.0,45867008.0,43839488.0,190775296.0,210601984.0,4276033536.0,17.0,106.0,446.0
447,131786752.0,4287342592.0,4116099072.0,267679744.0,328790016.0,212285440.0,229197824.0,184410112.0,372588544.0,25202688.0,101040128.0,73179136.0,200536064.0,116803584.0,163092480.0,44793856.0,46030848.0,155322368.0,216516608.0,4280449024.0,17.0,106.0,447.0
448,122120192.0,4275259392.0,4104955904.0,260907008.0,320366592.0,204593152.0,217376768.0,174569472.0,369070080.0,14807040.0,92381184.0,74395648.0,194873344.0,108220416.0,155054080.0,37572608.0,38111232.0,173199360.0,204611584.0,4268916736.0,17.0,106.0,448.0
449,119615488.0,4269862912.0,4099780608.0,257828864.0,316401664.0,203536384.0,211810304.0,170178560.0,378982400.0,10733568.0,90714112.0,94304256.0,200597504.0,106569728.0,153106432.0,38682624.0,35913728.0,208627712.0,198760448.0,4264550400.0,17.0,106.0,449.0
450,129288192.0,4281958400.0,4110942208.0,264624128.0,324802560.0,211261440.0,223698944.0,180037632.0,382521344.0,21145600.0,99368960.0,93104128.0,206262272.0,115159040.0,161157120.0,45897728.0,43798528.0,190775296.0,210692096.0,4276088832.0,17.0,106.0,450.0
451,131805184.0,4287367168.0,4116082688.0,267716608.0,328763392.0,212307968.0,229316608.0,184442880.0,372606976.0,25210880.0,101031936.0,73216000.0,200538112.0,116801536.0,163092480.0,44787712.0,45955072.0,155353088.0,216551424.0,4280449024.0,17.0,106.0,451.0
452,122109952.0,4275243008.0,4104863744.0,260900864.0,320323584.0,204574720.0,217458688.0,174559232.0,369092608.0,14782464.0,92370944.0,74483712.0,194854912.0,108187648.0,155027456.0,37562368.0,38012928.0,173314048.0,204601344.0,4268881920.0,17.0,106.0,452.0
453,119554048.0,4269807616.0,4099612672.0,257753088.0,316295168.0,203481088.0,211853312.0,170131456.0,378974208.0,10661888.0,90695680.0,94408704.0,200536064.0,106508288.0,153032704.0,38647808.0,35794944.0,208723968.0,198705152.0,4264478720.0,17.0,106.0,453.0
454,129208320.0,4281878528.0,4110743552.0,264540160.0,324687872.0,211156992.0,223700992.0,179980288.0,382504960.0,21030912.0,99340288.0,93227008.0,206209024.0,115081216.0,161056768.0,45867008.0,43667456.0,190851072.0,210601984.0,4275986432.0,17.0,106.0,454.0
455,131762176.0,4287330304.0,4115986432.0,267687936.0,328660992.0,212242432.0,229371904.0,184432640.0,372621312.0,25143296.0,101040128.0,73396224.0,200542208.0,116766720.0,163043328.0,44806144.0,45879296.0,155465728.0,216500224.0,4280403968.0,17.0,106.0,455.0
456,122109952.0,4275251200.0,4104820736.0,260923392.0,320258048.0,204566528.0,217554944.0,174585856.0,369121280.0,14772224.0,92395520.0,74647552.0,194899968.0,108177408.0,155011072.0,37586944.0,37986304.0,173416448.0,204605440.0,4268892160.0,17.0,106.0,456.0
457,119586816.0,4269852672.0,4099627008.0,257818624.0,316274688.0,203501568.0,211965952.0,170182656.0,379025408.0,10702848.0,90732544.0,94535680.0,200607744.0,106522624.0,153024512.0,38692864.0,35786752.0,208814080.0,198742016.0,4264507392.0,17.0,106.0,457.0
458,129286144.0,4281954304.0,4110788608.0,264605696.0,324685824.0,211193856.0,223862784.0,180062208.0,382552064.0,21088256.0,99391488.0,93308928.0,206282752.0,115124224.0,161064960.0,45897728.0,43712512.0,190928896.0,210661376.0,4276031488.0,17.0,106.0,458.0
459,131835904.0,4287381504.0,4115988480.0,267698176.0,328646656.0,212275200.0,229500928.0,184489984.0,372631552.0,25200640.0,101085184.0,73420800.0,200617984.0,116809728.0,163047424.0,44773376.0,45932544.0,155512832.0,216555520.0,4280440832.0,17.0,106.0,459.0
460,122161152.0,4275281920.0,4104810496.0,260919296.0,320233472.0,204578816.0,217653248.0,174622720.0,369131520.0,14809088.0,92450816.0,74645504.0,194963456.0,108210176.0,155033600.0,37558272.0,38041600.0,173420544.0,204640256.0,4268900352.0,17.0,106.0,460.0
461,119613440.0,4269844480.0,4099579904.0,257812480.0,316237824.0,203499520.0,212045824.0,170203136.0,379013120.0,10708992.0,90771456.0,94496768.0,200636416.0,106520576.0,153059328.0,38641664.0,35827712.0,208809984.0,198752256.0,4264513536.0,17.0,106.0,461.0
462,129255424.0,4281896960.0,4110721024.0,264599552.0,324599808.0,211159040.0,223883264.0,180033536.0,382525440.0,21088256.0,99391488.0,93218816.0,206288896.0,115066880.0,161062912.0,45809664.0,43692032.0,190969856.0,210638848.0,4276023296.0,17.0,106.0,462.0
